T (C)	Fraction solid (wt)-TOTAL	Fraction liquid (wt)-LIQUID	Density (g/(cm)^3)-TOTAL	Volume change (%)-  	Average expansion coeff. (10e-6 1/K)-  	Thermal conductivity (W/(m*K))-TOTAL	Electrical conductivity (10e6 1/(Ohm*m))-TOTAL	Young's modulus (GPa)-TOTAL	Poisson's ratio-TOTAL	Enthalpy (J/mole)-TOTAL	Specific heat (J/(mole K))-TOTAL	Latent heat (J/mole)-TOTAL
1400.0	0.0	1.0	7.10678	0.0	34.71545	30.24025	0.73771	0.0	0.5	40128.358	 	0.0
1395.0	0.0	1.0	7.1109	-0.0578843	34.68114	30.15968	0.73795	0.0	0.5	39928.295	40.0126	0.0
1390.0	0.0	1.0	7.11501	-0.11561	34.64704	30.07911	0.73819	0.0	0.5	39728.674	39.9242	0.0
1385.0	0.0	1.0	7.11911	-0.17317	34.61313	29.99854	0.73843	0.0	0.5	39529.492	39.8364	0.0
1380.0	0.0	1.0	7.12321	-0.23056	34.57944	29.91797	0.73868	0.0	0.5	39330.746	39.7492	0.0
1375.0	0.0	1.0	7.12729	-0.2878	34.54596	29.8374	0.73892	0.0	0.5	39132.435	39.6622	0.0
1370.0	0.0	1.0	7.13138	-0.34487	34.51268	29.75683	0.73917	0.0	0.5	38934.554	39.5762	0.0
1365.0	0.0	1.0	7.13545	-0.40178	34.47962	29.67626	0.73942	0.0	0.5	38737.101	39.4906	0.0
1360.0	0.0	1.0	7.13952	-0.45853	34.44678	29.5957	0.73967	0.0	0.5	38540.073	39.4056	0.0
1355.0	0.0	1.0	7.14358	-0.51511	34.41415	29.51513	0.73992	0.0	0.5	38343.469	39.3208	0.0
1353.93	0.0	1.0	7.14444	-0.52716	34.40723	29.49794	0.73997	0.0	0.5	38301.592	39.26509	0.0
1350.0	0.15747	0.84253	7.19689	-1.25148	32.42623	29.92216	0.75243	0.054357	0.48103	35947.864	598.38311	2199.416
1345.0	0.32009	0.67991	7.25238	-2.00729	30.36713	30.37222	0.76611	0.96282	0.46101	33499.547	489.6634	4451.966
1340.0	0.44686	0.55314	7.29688	-2.60361	28.75455	30.73154	0.77758	3.76844	0.44509	31567.425	386.4244	6188.735
1335.0	0.54676	0.45324	7.3329	-3.08088	27.47598	31.01876	0.78728	8.65917	0.4323	30021.174	309.2502	7540.045
1330.0	0.62625	0.37375	7.36246	-3.46843	26.44957	31.24659	0.79554	15.21944	0.42196	28766.194	250.996	8600.494
1325.0	0.69003	0.30997	7.3869	-3.78611	25.62011	31.42486	0.80258	22.83808	0.41352	27733.112	206.6164	9439.452
1320.0	0.7416	0.2584	7.40737	-4.04936	24.94439	31.5615	0.8086	30.9444	0.40659	26870.564	172.5096	10108.281
1315.0	0.78359	0.21641	7.42465	-4.2707	24.38721	31.66355	0.81377	39.09682	0.40085	26140.163	146.0802	10645.364
1310.0	0.81801	0.18199	7.4394	-4.45804	23.92655	31.7368	0.81823	46.99022	0.39608	25512.977	125.4372	11079.631
1306.9	0.83585	0.16415	7.44735	-4.55864	23.68542	31.76793	0.82064	51.56687	0.39356	25170.707	 	11302.346
1305.0	0.84804	0.15196	7.45271	-4.62653	23.51841	31.79216	0.82225	54.88732	0.39184	24942.877	114.02	11457.209
1300.0	0.87664	0.12336	7.46564	-4.7894	23.12385	31.84343	0.8262	63.38713	0.38774	24390.845	110.4064	11817.114
1295.0	0.89929	0.10071	7.47649	-4.9253	22.80713	31.8698	0.82952	70.88994	0.38443	23918.404	94.4882	12097.821
1290.0	0.91746	0.082545	7.48575	-5.04087	22.54912	31.87672	0.83235	77.46079	0.38171	23505.513	82.5782	12319.367
1285.0	0.93217	0.0678343	7.49377	-5.14074	22.33656	31.86829	0.8348	83.19546	0.37945	23137.853	73.532	12496.069
1280.0	0.9442	0.0558024	7.50083	-5.22831	22.15965	31.84758	0.83694	88.19794	0.37756	22805.019	66.5668	12638.33
1276.56	0.95112	0.0488844	7.5052	-5.28237	22.05598	31.82689	0.83826	91.2227	0.37644	22593.515	 	12718.947
1275.0	0.95512	0.044877	7.50755	-5.31135	21.99513	31.82063	0.83894	92.98421	0.3758	22484.457	64.1124	12768.702
1270.0	0.96666	0.0333419	7.5146	-5.39817	21.81774	31.79568	0.841	98.25154	0.37394	22153.127	66.266	12910.222
1265.0	0.97565	0.0243469	7.52073	-5.47355	21.67408	31.75959	0.84277	102.61397	0.37244	21855.747	59.476	13018.17
1260.0	0.98277	0.0172287	7.52619	-5.54043	21.55545	31.71499	0.84433	106.26398	0.37119	21583.274	54.4946	13101.588
1255.0	0.98847	0.0115251	7.53113	-5.60096	21.45554	31.66377	0.84573	109.35004	0.37013	21329.441	50.7666	13166.738
1250.0	0.9931	0.00690459	7.53568	-5.65654	21.37021	31.60732	0.84699	111.98591	0.36923	21089.805	47.9272	13218.063
1245.0	0.99688	0.00312178	7.53991	-5.70829	21.29618	31.54665	0.84815	114.26126	0.36845	20861.157	45.7296	13258.769
1240.0	1.0	0.0	7.5439	-5.75702	21.23097	31.48296	0.84923	116.24512	0.36776	20641.131	44.0052	13291.22
1235.0	1.0	0.0	7.54639	-5.78807	21.22092	31.3996	0.84979	116.66201	0.36753	20433.55568	41.51506	 
1230.0	1.0	0.0	7.54888	-5.81915	21.21068	31.3162	0.85036	117.07805	0.3673	20252.67831	36.17547	 
1225.0	1.0	0.0	7.55137	-5.85018	21.20051	31.2328	0.85092	117.49321	0.36707	20072.04241	36.12718	 
1220.0	1.0	0.0	7.55385	-5.88116	21.19043	31.1494	0.85149	117.90751	0.36684	19891.64771	36.07894	 
1215.0	1.0	0.0	7.55634	-5.91209	21.18044	31.06599	0.85206	118.32094	0.36661	19711.49389	36.03076	 
1210.0	1.0	0.0	7.55882	-5.94296	21.17053	30.98257	0.85264	118.73349	0.36638	19531.58065	35.98265	 
1205.0	1.0	0.0	7.56129	-5.97378	21.1607	30.89916	0.85322	119.14518	0.36615	19351.90769	35.93459	 
1200.72	1.0	0.0	7.56341	-6.00014	21.15236	30.8277	0.85372	119.49715	0.36595	19198.18984	 	 
1200.0	1.0	0.0	7.56431	-6.01125	21.12923	30.77587	0.8527	119.67666	0.36578	19144.16137	41.54927	 
1195.0	1.0	0.0	7.57045	-6.08754	20.97107	30.42495	0.84585	120.89086	0.3646	18772.35049	74.36217	 
1190.0	1.0	0.0	7.57645	-6.16181	20.81812	30.089	0.83937	122.04368	0.36346	18408.91124	72.68785	 
1185.0	1.0	0.0	7.58229	-6.23418	20.67012	29.76719	0.83324	123.14061	0.36238	18053.40902	71.10044	 
1180.0	1.0	0.0	7.588	-6.30473	20.52682	29.45872	0.82744	124.18642	0.36134	17705.43943	69.59392	 
1175.0	1.0	0.0	7.59358	-6.37357	20.38796	29.16281	0.82196	125.18526	0.36034	17364.62336	68.16321	 
1170.0	1.0	0.0	7.59904	-6.44078	20.25331	28.87876	0.81677	126.14077	0.35938	17030.60527	66.80362	 
1165.0	1.0	0.0	7.60437	-6.50644	20.12265	28.60589	0.81187	127.05619	0.35846	16703.05134	65.51079	 
1160.0	1.0	0.0	7.6096	-6.57064	19.99578	28.34356	0.80723	127.93439	0.35757	16381.6479	64.28069	 
1155.0	1.0	0.0	7.61472	-6.63343	19.87251	28.09116	0.80284	128.77797	0.35671	16066.09999	63.10958	 
1153.39	1.0	0.0	7.61634	-6.65336	19.83355	28.01192	0.80148	129.04261	0.35645	15965.70017	 	 
1150.0	1.0	0.0	7.61976	-6.69518	19.75166	27.84798	0.79869	129.59243	0.35589	15754.55414	62.30917	 
1145.0	1.0	0.0	7.6247	-6.75575	19.63376	27.61363	0.79476	130.37766	0.35509	15447.82372	61.34608	 
1143.14	1.0	0.0	7.62652	-6.77792	19.59081	27.52879	0.79336	130.6618	0.3548	15335.29436	 	 
1140.0	1.0	0.0	7.62955	-6.81501	19.51927	27.38772	0.79105	131.13429	0.35432	15146.2826	60.30822	 
1135.0	1.0	0.0	7.63431	-6.87304	19.40797	27.16978	0.78754	131.86404	0.35357	14849.74417	59.30769	 
1130.0	1.0	0.0	7.63897	-6.92993	19.29959	26.95937	0.78422	132.56846	0.35286	14558.04942	58.33895	 
1125.0	1.0	0.0	7.64356	-6.98574	19.19397	26.75606	0.78109	133.24911	0.35217	14270.96481	57.41692	 
1120.0	1.0	0.0	7.64806	-7.04052	19.09098	26.55944	0.77813	133.90745	0.3515	13988.27152	56.53866	 
1115.0	1.0	0.0	7.65249	-7.09432	18.99048	26.36912	0.77534	134.54483	0.35086	13709.76429	55.70145	 
1110.0	1.0	0.0	7.65685	-7.14718	18.89234	26.18476	0.7727	135.16249	0.35023	13435.25033	54.90279	 
1105.0	1.0	0.0	7.66113	-7.19914	18.79646	26.00603	0.77021	135.76162	0.34963	13164.54836	54.14039	 
1100.0	1.0	0.0	7.66536	-7.25025	18.70273	25.83262	0.76786	136.34329	0.34905	12897.48774	53.41212	 
1095.0	1.0	0.0	7.66951	-7.30054	18.61102	25.66425	0.76565	136.90854	0.34848	12633.90816	52.71592	 
1090.0	1.0	0.0	7.67361	-7.35005	18.52126	25.50064	0.76356	137.45832	0.34793	12373.658	52.05003	 
1085.0	1.0	0.0	7.67765	-7.3988	18.43334	25.34154	0.76159	137.99352	0.3474	12116.59358	51.41288	 
1080.0	1.0	0.0	7.68164	-7.44684	18.34717	25.18672	0.75973	138.51499	0.34688	11862.57955	50.80281	 
1075.0	1.0	0.0	7.68557	-7.4942	18.26269	25.03596	0.75798	139.02354	0.34638	11611.48786	50.21834	 
1070.0	1.0	0.0	7.68945	-7.54089	18.1798	24.88904	0.75634	139.51989	0.3459	11363.19736	49.6581	 
1065.0	1.0	0.0	7.69328	-7.58695	18.09843	24.74553	0.75479	140.00477	0.34542	11117.59315	49.12084	 
1060.0	1.0	0.0	7.69707	-7.6324	18.01852	24.60573	0.75334	140.47884	0.34496	10874.56649	48.60533	 
1055.0	1.0	0.0	7.70081	-7.67727	17.93999	24.46924	0.75198	140.94273	0.34452	10634.014	48.1105	 
1050.0	1.0	0.0	7.70451	-7.72158	17.86278	24.33589	0.75071	141.39702	0.34408	10395.83764	47.63527	 
1045.0	1.0	0.0	7.70816	-7.76535	17.78682	24.20554	0.74952	141.84229	0.34366	10159.94433	47.17866	 
1040.0	1.0	0.0	7.71178	-7.8086	17.71207	24.07804	0.74841	142.27906	0.34324	9926.24548	46.73977	 
1035.0	1.0	0.0	7.71536	-7.85135	17.63846	23.95339	0.74738	142.70783	0.34284	9694.65688	46.31772	 
1030.0	1.0	0.0	7.7189	-7.89361	17.56594	23.83119	0.74642	143.12909	0.34245	9465.09835	45.91171	 
1025.0	1.0	0.0	7.7224	-7.93542	17.49447	23.71145	0.74553	143.54327	0.34206	9237.49372	45.52093	 
1020.0	1.0	0.0	7.72587	-7.97678	17.42398	23.59408	0.74471	143.9508	0.34169	9011.77018	45.14471	 
1015.0	1.0	0.0	7.72931	-8.01771	17.35444	23.47897	0.74395	144.35209	0.34132	8787.8585	44.78234	 
1010.0	1.0	0.0	7.73272	-8.05822	17.28581	23.36602	0.74326	144.74752	0.34097	8565.69267	44.43316	 
1005.0	1.0	0.0	7.73609	-8.09833	17.21803	23.25514	0.74263	145.13745	0.34062	8345.20967	44.0966	 
1000.0	1.0	0.0	7.73944	-8.13806	17.15107	23.14624	0.74205	145.52222	0.34027	8126.3494	43.77205	 
995.0	1.0	0.0	7.74276	-8.17741	17.08489	23.03923	0.74153	145.90217	0.33994	7909.05442	43.459	 
990.0	1.0	0.0	7.74604	-8.21639	17.01945	22.93405	0.74107	146.27758	0.33961	7693.26994	43.1569	 
985.0	1.0	0.0	7.74931	-8.25503	16.95471	22.83061	0.74066	146.64877	0.33929	7478.94359	42.86527	 
980.0	1.0	0.0	7.75254	-8.29333	16.89065	22.72885	0.7403	147.01601	0.33898	7266.02531	42.58366	 
975.0	1.0	0.0	7.75575	-8.33131	16.82723	22.62869	0.73999	147.37956	0.33867	7054.46724	42.31161	 
970.0	1.0	0.0	7.75894	-8.36896	16.76441	22.53009	0.73973	147.73967	0.33836	6844.2236	42.04873	 
965.0	1.0	0.0	7.76211	-8.40632	16.70217	22.43297	0.73952	148.09658	0.33807	6635.25057	41.79461	 
960.0	1.0	0.0	7.76525	-8.44337	16.64047	22.33729	0.73935	148.45051	0.33778	6427.50618	41.54888	 
955.0	1.0	0.0	7.76837	-8.48013	16.5793	22.24299	0.73922	148.80169	0.33749	6220.95034	41.31117	 
950.0	1.0	0.0	7.77146	-8.51662	16.51861	22.15003	0.73914	149.15031	0.33721	6015.54454	41.08116	 
945.0	1.0	0.0	7.77454	-8.55283	16.45838	22.05835	0.7391	149.49657	0.33693	5811.25191	40.85853	 
940.0	1.0	0.0	7.7776	-8.58878	16.39859	21.9679	0.73911	149.84065	0.33666	5608.03705	40.64297	 
935.0	1.0	0.0	7.78064	-8.62448	16.33921	21.87866	0.73915	150.18274	0.33639	5405.86611	40.43419	 
930.0	1.0	0.0	7.78366	-8.65993	16.28022	21.79058	0.73924	150.52298	0.33613	5204.70651	40.23192	 
925.0	1.0	0.0	7.78666	-8.69514	16.2216	21.70362	0.73936	150.86156	0.33587	5004.52707	40.03589	 
920.0	1.0	0.0	7.78964	-8.73011	16.16332	21.61774	0.73952	151.19861	0.33561	4805.29777	39.84586	 
915.0	1.0	0.0	7.79261	-8.76485	16.10536	21.53292	0.73972	151.53428	0.33536	4606.98975	39.6616	 
910.0	1.0	0.0	7.79556	-8.79938	16.0477	21.44912	0.73995	151.86871	0.33512	4409.57532	39.48289	 
905.0	1.0	0.0	7.79849	-8.83369	15.99031	21.3663	0.74022	152.20203	0.33487	4213.02791	39.30948	 
900.0	1.0	0.0	7.80141	-8.86778	15.93319	21.28445	0.74053	152.53437	0.33463	4017.32181	39.14122	 
895.0	1.0	0.0	7.80431	-8.90168	15.8763	21.20352	0.74087	152.86584	0.33439	3822.43242	38.97788	 
890.0	1.0	0.0	7.8072	-8.93537	15.81964	21.12351	0.74125	153.19656	0.33416	3628.33592	38.8193	 
885.0	1.0	0.0	7.81007	-8.96887	15.76317	21.04438	0.74166	153.52663	0.33393	3435.00949	38.66529	 
880.0	1.0	0.0	7.81293	-9.00218	15.70689	20.96611	0.74211	153.85617	0.3337	3242.43078	38.51574	 
875.0	1.0	0.0	7.81578	-9.03531	15.65078	20.88867	0.74258	154.18527	0.33348	3050.57853	38.37045	 
870.0	1.0	0.0	7.81861	-9.06825	15.59481	20.81205	0.7431	154.51401	0.33325	2859.43251	38.2292	 
865.0	1.0	0.0	7.82143	-9.10102	15.53897	20.73623	0.74364	154.84251	0.33303	2668.97296	38.09191	 
860.0	1.0	0.0	7.82423	-9.13362	15.48326	20.66118	0.74422	155.17083	0.33282	2479.18078	37.95844	 
855.0	1.0	0.0	7.82703	-9.16605	15.42764	20.58689	0.74483	155.49906	0.3326	2290.03742	37.82867	 
850.0	1.0	0.0	7.82981	-9.19832	15.3721	20.51335	0.74547	155.82728	0.33239	2101.52501	37.70248	 
845.0	1.0	0.0	7.83201	-9.22388	15.34704	20.45395	0.74664	156.15538	0.33226	1941.49526	32.00595	 
840.0	1.0	0.0	7.83422	-9.24938	15.32197	20.39454	0.74781	156.48302	0.33212	1778.40743	32.61757	 
835.0	1.0	0.0	7.83641	-9.27481	15.2969	20.33512	0.749	156.81022	0.33199	1615.52873	32.57574	 
830.0	1.0	0.0	7.8386	-9.30018	15.27183	20.27569	0.7502	157.13696	0.33185	1452.85835	32.53407	 
825.0	1.0	0.0	7.84079	-9.32548	15.24676	20.21625	0.7514	157.46326	0.33172	1290.39546	32.49258	 
820.0	1.0	0.0	7.84297	-9.35072	15.22168	20.1568	0.75262	157.7891	0.33159	1128.13916	32.45126	 
815.0	1.0	0.0	7.84515	-9.37589	15.1966	20.09734	0.75385	158.1145	0.33146	966.08855	32.41012	 
810.0	1.0	0.0	7.84733	-9.40099	15.17152	20.03787	0.75509	158.43945	0.33132	804.24268	32.36917	 
805.0	1.0	0.0	7.8495	-9.42604	15.14644	19.97839	0.75634	158.76395	0.33119	642.60056	32.32842	 
800.0	1.0	0.0	7.85166	-9.45101	15.12135	19.9189	0.7576	159.088	0.33106	481.16116	32.28788	 
795.0	1.0	0.0	7.85382	-9.47592	15.09626	19.8594	0.75887	159.4116	0.33092	319.92341	32.24755	 
790.0	1.0	0.0	7.85598	-9.50077	15.07117	19.79989	0.76015	159.73475	0.33079	158.88618	32.20745	 
785.0	1.0	0.0	7.85813	-9.52555	15.04608	19.74037	0.76145	160.05746	0.33066	-1.9517	32.16757	 
780.0	1.0	0.0	7.86028	-9.55026	15.02098	19.68083	0.76276	160.37971	0.33052	-162.59145	32.12795	 
775.0	1.0	0.0	7.86242	-9.57491	14.99588	19.62129	0.76408	160.70152	0.33039	-323.03433	32.08858	 
770.0	1.0	0.0	7.86456	-9.59949	14.97078	19.56173	0.76541	161.02288	0.33026	-483.28171	32.04948	 
765.0	1.0	0.0	7.86669	-9.62401	14.94568	19.50216	0.76675	161.34379	0.33013	-643.33498	32.01065	 
760.0	1.0	0.0	7.86882	-9.64846	14.92057	19.44258	0.76811	161.66425	0.32999	-803.1956	31.97212	 
755.0	1.0	0.0	7.87094	-9.67285	14.89546	19.38298	0.76948	161.98426	0.32986	-962.86514	31.93391	 
750.0	1.0	0.0	7.87306	-9.69717	14.87035	19.32338	0.77086	162.30383	0.32973	-1122.3452	31.89601	 
745.0	1.0	0.0	7.87518	-9.72143	14.84524	19.26376	0.77226	162.62295	0.3296	-1281.63749	31.85846	 
740.0	1.0	0.0	7.87729	-9.74562	14.82012	19.20412	0.77367	162.94162	0.32946	-1440.74379	31.82126	 
735.0	1.0	0.0	7.8794	-9.76975	14.795	19.14448	0.77509	163.25984	0.32933	-1599.666	31.78444	 
730.0	1.0	0.0	7.8815	-9.79381	14.76988	19.08482	0.77653	163.57761	0.3292	-1758.40609	31.74802	 
725.0	1.0	0.0	7.88359	-9.8178	14.74475	19.02514	0.77798	163.89494	0.32907	-1916.96614	31.71201	 
720.0	1.0	0.0	7.88569	-9.84173	14.71962	18.96546	0.77944	164.21182	0.32893	-2075.34837	31.67645	 
715.0	1.0	0.0	7.88777	-9.8656	14.69449	18.90575	0.78092	164.52825	0.3288	-2233.5551	31.64135	 
710.0	1.0	0.0	7.88986	-9.88939	14.66936	18.84604	0.78241	164.84423	0.32867	-2391.58876	31.60673	 
705.0	1.0	0.0	7.89194	-9.91313	14.64423	18.78631	0.78392	165.15977	0.32854	-2549.45197	31.57264	 
700.0	1.0	0.0	7.89401	-9.9368	14.61909	18.72656	0.78544	165.47485	0.32841	-2707.14746	31.5391	 
695.0	1.0	0.0	7.89608	-9.9604	14.59395	18.6668	0.78698	165.78949	0.32827	-2864.67811	31.50613	 
690.0	1.0	0.0	7.89814	-9.98393	14.56881	18.60702	0.78853	166.10369	0.32814	-3022.047	31.47378	 
685.0	1.0	0.0	7.9002	-10.0074	14.54366	18.54723	0.7901	166.41743	0.32801	-3179.25735	31.44207	 
680.0	1.0	0.0	7.90226	-10.03081	14.51851	18.48742	0.79168	166.73073	0.32788	-3336.31261	31.41105	 
675.0	1.0	0.0	7.90431	-10.05415	14.49336	18.42759	0.79328	167.04358	0.32775	-3493.21643	31.38076	 
670.0	1.0	0.0	7.90636	-10.07742	14.46821	18.36775	0.79489	167.35599	0.32762	-3649.97265	31.35124	 
665.0	1.0	0.0	7.9084	-10.10063	14.44305	18.30789	0.79653	167.66795	0.32748	-3806.5854	31.32255	 
660.0	1.0	0.0	7.91043	-10.12378	14.4179	18.24802	0.79817	167.97946	0.32735	-3963.0474	31.2924	 
655.0	1.0	0.0	7.91247	-10.14685	14.39274	18.18812	0.79984	168.29052	0.32722	-4119.29415	31.24935	 
650.0	1.0	0.0	7.91449	-10.16987	14.36757	18.12821	0.80152	168.60113	0.32709	-4275.24002	31.18917	 
645.0	1.0	0.0	7.91651	-10.19281	14.34241	18.06828	0.80322	168.9113	0.32696	-4430.88635	31.12927	 
640.0	1.0	0.0	7.91853	-10.21569	14.31724	18.00833	0.80494	169.22103	0.32683	-4586.23446	31.06962	 
635.0	1.0	0.0	7.92054	-10.23851	14.29207	17.94836	0.80668	169.5303	0.3267	-4741.28567	31.01024	 
630.0	1.0	0.0	7.92255	-10.26126	14.26689	17.88837	0.80843	169.83913	0.32657	-4896.04131	30.95113	 
625.0	1.0	0.0	7.92456	-10.28394	14.24172	17.82836	0.81021	170.14751	0.32643	-5050.50295	30.89233	 
620.0	1.0	0.0	7.92655	-10.30656	14.21654	17.76834	0.812	170.45545	0.3263	-5204.67251	30.83391	 
615.0	1.0	0.0	7.92855	-10.32911	14.19136	17.70829	0.81381	170.76294	0.32617	-5358.55101	30.7757	 
610.0	1.0	0.0	7.93054	-10.3516	14.16617	17.64822	0.81564	171.06998	0.32604	-5512.13975	30.71775	 
605.0	1.0	0.0	7.93252	-10.37402	14.14099	17.58813	0.81749	171.37658	0.32591	-5665.44001	30.66005	 
600.0	1.0	0.0	7.9345	-10.39637	14.1158	17.52802	0.81937	171.68272	0.32578	-5818.45311	30.60262	 
595.0	1.0	0.0	7.93647	-10.41866	14.09061	17.46788	0.82126	171.98843	0.32565	-5971.18033	30.54544	 
590.0	1.0	0.0	7.93844	-10.44089	14.06541	17.40772	0.82317	172.29368	0.32552	-6123.62299	30.48853	 
585.0	1.0	0.0	7.94041	-10.46305	14.04021	17.34754	0.8251	172.59849	0.32539	-6275.78235	30.43187	 
580.0	1.0	0.0	7.94237	-10.48514	14.01501	17.28734	0.82706	172.90286	0.32526	-6427.65972	30.37547	 
575.0	1.0	0.0	7.94432	-10.50716	13.98981	17.22711	0.82904	173.20678	0.32513	-6579.25639	30.31933	 
570.0	1.0	0.0	7.94627	-10.52912	13.96461	17.16686	0.83104	173.51025	0.325	-6730.57364	30.26345	 
565.0	1.0	0.0	7.94822	-10.55102	13.9394	17.10659	0.83306	173.81327	0.32487	-6881.61276	30.20782	 
560.0	1.0	0.0	7.95016	-10.57285	13.91419	17.04628	0.8351	174.11585	0.32474	-7032.37502	30.15245	 
555.0	1.0	0.0	7.95209	-10.59461	13.88898	16.98596	0.83717	174.41798	0.32461	-7182.8617	30.09734	 
550.0	1.0	0.0	7.95402	-10.61631	13.86376	16.9256	0.83926	174.71967	0.32447	-7333.07408	30.04247	 
545.0	1.0	0.0	7.95595	-10.63794	13.83855	16.86522	0.84138	175.02091	0.32434	-7483.01342	29.98787	 
540.0	1.0	0.0	7.95787	-10.65951	13.81333	16.80481	0.84352	175.32171	0.32421	-7632.68101	29.93352	 
535.0	1.0	0.0	7.95978	-10.68101	13.7881	16.74438	0.84569	175.62205	0.32408	-7782.0781	29.87942	 
530.0	1.0	0.0	7.96169	-10.70244	13.76288	16.68391	0.84788	175.92196	0.32395	-7931.20596	29.82557	 
525.0	1.0	0.0	7.9636	-10.72381	13.73765	16.62342	0.8501	176.22141	0.32382	-8080.06586	29.77198	 
520.0	1.0	0.0	7.9655	-10.74511	13.71242	16.56289	0.85234	176.52042	0.32369	-8228.65903	29.71863	 
515.0	1.0	0.0	7.9674	-10.76635	13.68719	16.50234	0.85462	176.81899	0.32356	-8376.98675	29.66554	 
510.0	1.0	0.0	7.96929	-10.78752	13.66195	16.44176	0.85691	177.11711	0.32343	-8525.05026	29.6127	 
505.0	1.0	0.0	7.97117	-10.80863	13.63672	16.38114	0.85924	177.41478	0.3233	-8672.85081	29.56011	 
500.0	1.0	0.0	7.97305	-10.82967	13.61147	16.32049	0.8616	177.71201	0.32318	-8820.38964	29.50777	 
495.0	1.0	0.0	7.97493	-10.85064	13.58623	16.25981	0.86398	178.00879	0.32305	-8967.66799	29.45567	 
490.0	1.0	0.0	7.9768	-10.87155	13.56099	16.19909	0.86639	178.30513	0.32292	-9114.6871	29.40382	 
485.0	1.0	0.0	7.97867	-10.89239	13.53574	16.13834	0.86884	178.60102	0.32279	-9261.44819	29.35222	 
480.0	1.0	0.0	7.98053	-10.91316	13.51049	16.07756	0.87131	178.89646	0.32266	-9407.9525	29.30086	 
475.0	1.0	0.0	7.98238	-10.93387	13.48523	16.01674	0.87381	179.19146	0.32253	-9554.20125	29.24975	 
470.0	1.0	0.0	7.98423	-10.95452	13.45998	15.95588	0.87635	179.48601	0.3224	-9700.19566	29.19888	 
465.0	1.0	0.0	7.98608	-10.97509	13.43472	15.89499	0.87892	179.78012	0.32227	-9845.93694	29.14826	 
460.0	1.0	0.0	7.98792	-10.9956	13.40946	15.83405	0.88152	180.07378	0.32214	-9991.4263	29.09787	 
455.0	1.0	0.0	7.98975	-11.01605	13.38419	15.77308	0.88416	180.367	0.32201	-10136.66495	29.04773	 
450.0	1.0	0.0	7.99158	-11.03643	13.35893	15.71207	0.88683	180.65977	0.32188	-10281.65408	28.99783	 
445.0	1.0	0.0	7.99341	-11.05674	13.33366	15.65102	0.88953	180.95209	0.32175	-10426.39491	28.94817	 
440.0	1.0	0.0	7.99523	-11.07699	13.30839	15.58992	0.89227	181.24397	0.32162	-10570.8886	28.89874	 
