T (C)	Fraction solid (wt)-TOTAL	Fraction liquid (wt)-LIQUID	Density (g/(cm)^3)-TOTAL	Volume change (%)-  	Average expansion coeff. (10e-6 1/K)-  	Thermal conductivity (W/(m*K))-TOTAL	Electrical conductivity (10e6 1/(Ohm*m))-TOTAL	Young's modulus (GPa)-TOTAL	Poisson's ratio-TOTAL	Enthalpy (J/mole)-TOTAL	Specific heat (J/(mole K))-TOTAL	Latent heat (J/mole)-TOTAL
400.0	0.0	1.0	8.57042	0.0	52.11203	25.00265	1.51603	0.0	0.5	18409.082	 	0.0
395.0	0.0	1.0	8.57517	-0.0554293	52.28761	24.91837	1.52223	0.0	0.5	18262.414	29.3336	0.0
390.0	0.0	1.0	8.57991	-0.11063	52.47024	24.8341	1.52852	0.0	0.5	18115.692	29.3444	0.0
385.0	0.0	1.0	8.58464	-0.16559	52.66021	24.74982	1.5349	0.0	0.5	17968.916	29.3552	0.0
380.0	0.0	1.0	8.58934	-0.22033	52.85783	24.66555	1.54139	0.0	0.5	17822.082	29.3668	0.0
375.0	0.0	1.0	8.59404	-0.27483	53.06343	24.58128	1.54797	0.0	0.5	17675.188	29.3788	0.0
370.0	0.0	1.0	8.59872	-0.3291	53.27736	24.497	1.55466	0.0	0.5	17528.231	29.3914	0.0
365.0	0.0	1.0	8.60338	-0.38314	53.49999	24.41273	1.56145	0.0	0.5	17381.208	29.4046	0.0
360.0	0.0	1.0	8.60803	-0.43695	53.7317	24.32846	1.56835	0.0	0.5	17234.116	29.4184	0.0
355.0	0.0	1.0	8.61267	-0.49053	53.97291	24.24418	1.57535	0.0	0.5	17086.951	29.433	0.0
350.0	0.0	1.0	8.61729	-0.54387	54.22405	24.15991	1.58247	0.0	0.5	16939.71	29.4482	0.0
345.0	0.0	1.0	8.62189	-0.59699	54.4856	24.07564	1.58971	0.0	0.5	16792.389	29.4642	0.0
340.0	0.0	1.0	8.62648	-0.64987	54.75804	23.99136	1.59706	0.0	0.5	16644.984	29.481	0.0
335.0	0.0	1.0	8.63106	-0.70252	55.0419	23.90709	1.60454	0.0	0.5	16497.491	29.4986	0.0
330.0	0.0	1.0	8.63561	-0.75494	55.33776	23.82281	1.61214	0.0	0.5	16349.906	29.517	0.0
325.0	0.0	1.0	8.64016	-0.80713	55.64619	23.73854	1.61986	0.0	0.5	16202.255	29.5302	0.0
320.0	0.0	1.0	8.64469	-0.85908	55.96786	23.65427	1.62772	0.0	0.5	16054.726	29.5058	0.0
315.0	0.0	1.0	8.6492	-0.91081	56.30343	23.56999	1.63571	0.0	0.5	15907.343	29.4766	0.0
310.0	0.0	1.0	8.65369	-0.9623	56.65364	23.48572	1.64383	0.0	0.5	15760.094	29.4498	0.0
305.0	0.0	1.0	8.65818	-1.01356	57.01928	23.40145	1.6521	0.0	0.5	15612.969	29.425	0.0
300.0	0.0	1.0	8.66264	-1.06459	57.40119	23.31717	1.66051	0.0	0.5	15465.959	29.402	0.0
295.0	0.0	1.0	8.66709	-1.11539	57.80027	23.2329	1.66907	0.0	0.5	15319.052	29.3814	0.0
290.0	0.0	1.0	8.67153	-1.16596	58.21749	23.14863	1.67778	0.0	0.5	15172.237	29.363	0.0
285.0	0.0	1.0	8.67595	-1.21629	58.6539	23.06435	1.68665	0.0	0.5	15025.503	29.3468	0.0
280.0	0.0	1.0	8.68035	-1.2664	59.11063	22.98008	1.69567	0.0	0.5	14878.841	29.3324	0.0
275.0	0.0	1.0	8.68473	-1.31627	59.58889	22.8958	1.70487	0.0	0.5	14732.237	29.3208	0.0
270.0	0.0	1.0	8.68911	-1.36591	60.09001	22.81153	1.71423	0.0	0.5	14585.681	29.3112	0.0
265.0	0.0	1.0	8.69346	-1.41532	60.61542	22.72726	1.72376	0.0	0.5	14439.162	29.3038	0.0
260.0	0.0	1.0	8.6978	-1.4645	61.16666	22.64298	1.73348	0.0	0.5	14292.667	29.299	0.0
255.0	0.0	1.0	8.70212	-1.51344	61.74542	22.55871	1.74338	0.0	0.5	14146.184	29.2966	0.0
250.0	0.0	1.0	8.70643	-1.56216	62.35354	22.47444	1.75346	0.0	0.5	13999.7	29.2968	0.0
245.0	0.0	1.0	8.71072	-1.61064	62.99301	22.39016	1.76374	0.0	0.5	13853.204	29.2992	0.0
240.0	0.0	1.0	8.71499	-1.65889	63.66602	22.30589	1.77423	0.0	0.5	13706.681	29.3046	0.0
235.0	0.0	1.0	8.71925	-1.70691	64.37498	22.22161	1.78492	0.0	0.5	13560.119	29.3124	0.0
230.0	0.0	1.0	8.72349	-1.7547	65.1225	22.13734	1.79582	0.0	0.5	13413.524	29.319	0.0
225.0	0.0	1.0	8.72772	-1.80226	65.91148	22.05307	1.80694	0.0	0.5	13267.097	29.2854	0.0
220.0	0.0	1.0	8.73192	-1.84958	66.74511	21.96879	1.81828	0.0	0.5	13120.896	29.2402	0.0
215.74	0.0	1.0	8.73549	-1.88969	67.49272	21.89704	1.82812	0.0	0.5	12996.6	29.1971	0.0
215.0	0.01172	0.98828	8.73793	-1.91752	67.23982	22.0051	1.83994	1.67869E-7	0.49921	12928.569	91.5798	46.359
210.0	0.08367	0.91633	8.75326	-2.0892	65.78246	22.67945	1.91595	4.49411E-4	0.49434	12496.626	86.3886	332.573
208.46	0.10349	0.89651	8.75762	-2.13705	65.41456	22.86874	1.93812	0.00105875	0.493	12372.103	 	412.233
205.0	0.17102	0.82898	8.77026	-2.27891	63.89066	23.60214	2.01475	0.00742873	0.48766	11877.935	123.738	805.781
200.0	0.25189	0.74811	8.7859	-2.45308	62.20398	24.52445	2.1156	0.035797	0.48119	11260.346	123.518	1278.137
195.0	0.31693	0.68307	8.79916	-2.59994	60.98511	25.30551	2.2063	0.0939293	0.47594	10734.034	105.262	1659.474
190.0	0.36981	0.63019	8.81055	-2.7257	60.1435	25.96889	2.28858	0.18254	0.47163	10278.385	91.1298	1970.41
185.0	0.41328	0.58672	8.82054	-2.83562	59.59874	26.53356	2.36386	0.29748	0.46805	9878.042	80.0686	2226.307
180.66	0.44498	0.55502	8.82831	-2.92124	59.32054	26.95655	2.42452	0.41392	0.46543	9566.191	 	2412.929
180.66	1.0	0.0	8.96675	-4.42011	25.34118	39.44592	3.54784	24.9952	0.39509	5702.644	 	6276.477
175.0	1.0	0.0	8.97078	-4.463	25.28801	39.53712	3.60094	25.34971	0.39509	5538.642	433.94	 
170.0	1.0	0.0	8.97433	-4.50075	25.24121	39.61855	3.64907	25.65999	0.39509	5394.074	28.9136	 
165.0	1.0	0.0	8.97786	-4.53837	25.19458	39.70079	3.69837	25.96745	0.39508	5249.857	28.8434	 
160.0	1.0	0.0	8.98139	-4.57584	25.14813	39.78387	3.74889	26.27207	0.39508	5105.991	28.7732	 
155.0	1.0	0.0	8.9849	-4.61318	25.10186	39.86781	3.80067	26.57388	0.39508	4962.478	28.7026	 
150.0	1.0	0.0	8.98841	-4.65038	25.05577	39.95265	3.85376	26.87288	0.39508	4819.317	28.6322	 
145.0	1.0	0.0	8.9919	-4.68744	25.00985	40.03843	3.90822	27.16906	0.39508	4676.508	28.5618	 
140.0	1.0	0.0	8.99539	-4.72437	24.96412	40.12518	3.96409	27.46244	0.39508	4534.053	28.491	 
135.0	1.0	0.0	8.99886	-4.76116	24.91855	40.21294	4.02142	27.75301	0.39508	4391.952	28.4202	 
130.0	1.0	0.0	9.00233	-4.79782	24.87317	40.30175	4.08029	28.04078	0.39508	4250.205	28.3494	 
125.0	1.0	0.0	9.00578	-4.83435	24.82796	40.39165	4.14075	28.32576	0.39507	4108.812	28.2786	 
120.0	1.0	0.0	9.00923	-4.87074	24.78294	40.48269	4.20286	28.60794	0.39507	3967.773	28.2078	 
115.0	1.0	0.0	9.01266	-4.907	24.73808	40.57491	4.2667	28.88733	0.39507	3827.089	28.1368	 
110.0	1.0	0.0	9.01609	-4.94313	24.69341	40.66836	4.33233	29.16394	0.39507	3686.759	28.066	 
105.0	1.0	0.0	9.01951	-4.97912	24.64892	40.76309	4.39984	29.43776	0.39507	3546.784	27.995	 
100.0	1.0	0.0	9.02291	-5.01499	24.6046	40.85916	4.4693	29.7088	0.39507	3407.162	27.9244	 
95.0	1.0	0.0	9.02631	-5.05073	24.56045	40.95662	4.54081	29.97705	0.39507	3267.895	27.8534	 
90.0	1.0	0.0	9.02969	-5.08634	24.51649	41.05554	4.61445	30.24253	0.39507	3128.981	27.7828	 
85.0	1.0	0.0	9.03307	-5.12182	24.4727	41.15597	4.69031	30.50523	0.39506	2990.42	27.7122	 
80.0	1.0	0.0	9.03644	-5.15718	24.42909	41.25798	4.76851	30.76516	0.39506	2852.211	27.6418	 
75.0	1.0	0.0	9.0398	-5.19241	24.38566	41.36164	4.84915	31.02231	0.39506	2714.354	27.5714	 
70.0	1.0	0.0	9.04314	-5.22751	24.34241	41.46703	4.93234	31.27669	0.39506	2576.847	27.5014	 
65.0	1.0	0.0	9.04648	-5.26249	24.29934	41.57423	5.01821	31.5283	0.39506	2439.689	27.4316	 
60.0	1.0	0.0	9.04981	-5.29735	24.25644	41.68332	5.10689	31.77714	0.39506	2302.88	27.3618	 
55.0	1.0	0.0	9.05313	-5.33208	24.21371	41.79439	5.19852	32.02322	0.39506	2166.417	27.2926	 
50.0	1.0	0.0	9.05644	-5.36669	24.17117	41.90753	5.29324	32.26653	0.39506	2030.3	27.2234	 
45.0	1.0	0.0	9.05975	-5.40118	24.12881	42.02285	5.39123	32.50707	0.39506	1894.525	27.155	 
40.0	1.0	0.0	9.06304	-5.43555	24.08661	42.14044	5.49263	32.74485	0.39505	1759.09	27.087	 
35.0	1.0	0.0	9.06632	-5.4698	24.04461	42.26043	5.59765	32.97987	0.39505	1623.994	27.0192	 
30.0	1.0	0.0	9.0696	-5.50393	24.0028	42.38293	5.70647	33.21213	0.39505	1489.234	26.952	 
25.0	1.0	0.0	9.07286	-5.53794	 	42.50808	5.8193	33.44162	0.39505	1354.805	 	 
