T (C)	Fraction solid (wt)-TOTAL	Fraction liquid (wt)-LIQUID	Density (g/(cm)^3)-TOTAL	Volume change (%)-  	Average expansion coeff. (10e-6 1/K)-  	Thermal conductivity (W/(m*K))-TOTAL	Electrical conductivity (10e6 1/(Ohm*m))-TOTAL	Young's modulus (GPa)-TOTAL	Poisson's ratio-TOTAL	Enthalpy (J/mole)-TOTAL	Specific heat (J/(mole K))-TOTAL	Latent heat (J/mole)-TOTAL
400.0	0.0	1.0	7.94346	0.0	56.72437	32.45127	1.96768	0.0	0.5	18489.041	 	0.0
395.0	0.0	1.0	7.94777	-0.0542952	56.97055	32.35511	1.97653	0.0	0.5	18343.914	29.0254	0.0
390.0	0.0	1.0	7.95208	-0.10839	57.22547	32.25894	1.98551	0.0	0.5	18198.738	29.0352	0.0
385.0	0.0	1.0	7.95637	-0.16227	57.48949	32.16278	1.99463	0.0	0.5	18053.51	29.0456	0.0
380.0	0.0	1.0	7.96065	-0.21595	57.76299	32.06662	2.00389	0.0	0.5	17908.226	29.0568	0.0
375.0	0.0	1.0	7.96492	-0.26943	58.04638	31.97046	2.01329	0.0	0.5	17762.883	29.0686	0.0
370.0	0.0	1.0	7.96917	-0.3227	58.34009	31.87429	2.02284	0.0	0.5	17617.478	29.081	0.0
365.0	0.0	1.0	7.97342	-0.37577	58.64457	31.77813	2.03254	0.0	0.5	17472.006	29.0944	0.0
360.0	0.0	1.0	7.97765	-0.42863	58.96031	31.68197	2.04239	0.0	0.5	17326.463	29.1086	0.0
355.0	0.0	1.0	7.98187	-0.48128	59.28783	31.58581	2.0524	0.0	0.5	17180.845	29.1236	0.0
350.0	0.0	1.0	7.98608	-0.53374	59.62765	31.48964	2.06257	0.0	0.5	17035.147	29.1396	0.0
345.0	0.0	1.0	7.99028	-0.58598	59.98036	31.39348	2.07291	0.0	0.5	16889.365	29.1564	0.0
340.0	0.0	1.0	7.99446	-0.63802	60.34657	31.29732	2.08341	0.0	0.5	16743.493	29.1744	0.0
335.0	0.0	1.0	7.99864	-0.68986	60.72694	31.20115	2.09408	0.0	0.5	16597.527	29.1932	0.0
330.0	0.0	1.0	8.0028	-0.74149	61.12217	31.10499	2.10493	0.0	0.5	16451.459	29.2136	0.0
325.0	0.0	1.0	8.00695	-0.79292	61.53299	31.00883	2.11597	0.0	0.5	16305.304	29.231	0.0
320.0	0.0	1.0	8.01108	-0.84415	61.96019	30.91267	2.12719	0.0	0.5	16159.165	29.2278	0.0
315.0	0.0	1.0	8.01521	-0.89516	62.40463	30.8165	2.1386	0.0	0.5	16013.054	29.2222	0.0
310.0	0.0	1.0	8.01932	-0.94598	62.86722	30.72034	2.1502	0.0	0.5	15866.96	29.2188	0.0
305.0	0.0	1.0	8.02342	-0.99658	63.34892	30.62418	2.16201	0.0	0.5	15720.874	29.2172	0.0
300.0	0.0	1.0	8.0275	-1.04699	63.85078	30.52802	2.17402	0.0	0.5	15574.784	29.218	0.0
295.0	0.0	1.0	8.03158	-1.09719	64.37391	30.43185	2.18625	0.0	0.5	15428.681	29.2206	0.0
290.0	0.0	1.0	8.03564	-1.14718	64.91953	30.33569	2.19869	0.0	0.5	15282.553	29.2256	0.0
285.0	0.0	1.0	8.03969	-1.19697	65.48893	30.23953	2.21135	0.0	0.5	15136.39	29.2326	0.0
280.0	0.0	1.0	8.04373	-1.24655	66.0835	30.14337	2.22425	0.0	0.5	14990.18	29.242	0.0
275.0	0.0	1.0	8.04775	-1.29593	66.70476	30.0472	2.23737	0.0	0.5	14843.911	29.2538	0.0
270.0	0.0	1.0	8.05176	-1.34511	67.35434	29.95104	2.25074	0.0	0.5	14697.571	29.268	0.0
265.0	0.0	1.0	8.05576	-1.39408	68.03402	29.85488	2.26436	0.0	0.5	14551.147	29.2848	0.0
260.0	0.0	1.0	8.05975	-1.44284	68.74571	29.75871	2.27824	0.0	0.5	14404.627	29.304	0.0
255.0	0.0	1.0	8.06372	-1.4914	69.49149	29.66255	2.29237	0.0	0.5	14257.996	29.3262	0.0
250.0	0.0	1.0	8.06768	-1.53976	70.27366	29.56639	2.30678	0.0	0.5	14111.242	29.3508	0.0
245.0	0.0	1.0	8.07163	-1.58791	71.09468	29.47023	2.32146	0.0	0.5	13964.349	29.3786	0.0
240.0	0.0	1.0	8.07556	-1.63586	71.95726	29.37406	2.33643	0.0	0.5	13817.302	29.4094	0.0
235.0	0.0	1.0	8.07948	-1.6836	72.86437	29.2779	2.3517	0.0	0.5	13670.087	29.443	0.0
230.0	0.0	1.0	8.08339	-1.73113	73.81928	29.18174	2.36727	0.0	0.5	13522.714	29.4746	0.0
225.0	0.0	1.0	8.08729	-1.77846	74.82557	29.08558	2.38315	0.0	0.5	13375.452	29.4524	0.0
220.0	0.0	1.0	8.09117	-1.82559	75.88718	28.98941	2.39935	0.0	0.5	13228.382	29.414	0.0
215.0	0.0	1.0	8.09504	-1.87251	77.0085	28.89325	2.41589	0.0	0.5	13081.514	29.3736	0.0
210.0	0.0	1.0	8.09889	-1.91923	78.19435	28.79709	2.43277	0.0	0.5	12934.858	29.3312	0.0
205.0	0.0	1.0	8.10274	-1.96574	79.45011	28.70092	2.45	0.0	0.5	12788.425	29.2866	0.0
200.0	0.0	1.0	8.10657	-2.01205	80.78179	28.60476	2.46759	0.0	0.5	12642.223	29.2404	0.0
195.0	0.0	1.0	8.11038	-2.05815	82.19607	28.5086	2.48556	0.0	0.5	12496.263	29.192	0.0
194.96	0.0	1.0	8.11041	-2.05855	82.20887	28.50775	2.48572	0.0	0.5	12494.983	29.1638	0.0
190.0	0.00188	0.99812	8.11525	-2.11694	83.42344	28.22457	2.48737	3.75058E-10	0.49979	12313.296	36.6592	37.257
185.0	0.00367	0.99633	8.12004	-2.17499	84.74376	27.94835	2.4899	5.50943E-9	0.4996	12132.218	36.2156	72.885
180.0	0.00537	0.99463	8.12479	-2.23268	86.15761	27.68105	2.4933	2.53179E-8	0.49941	11953.289	35.7858	106.629
177.95	0.00604	0.99396	8.12672	-2.25535	86.78963	27.57397	2.49497	4.06214E-8	0.49934	11880.367	 	119.969
177.46	0.01031	0.98969	8.1277	-2.26675	86.79971	27.5938	2.49944	4.85779E-8	0.49905	11846.512	 	139.803
177.46	1.0	0.0	8.35726	-4.95169	24.3517	47.51444	4.30385	29.67193	0.38179	5310.668	 	6675.648
170.0	1.0	0.0	8.362	-5.00562	24.28585	47.6644	4.39013	30.25403	0.38178	5092.791	686.05	 
165.0	1.0	0.0	8.36517	-5.0416	24.24186	47.76647	4.44974	30.63933	0.38178	4947.274	29.1034	 
160.0	1.0	0.0	8.36833	-5.07746	24.19797	47.86986	4.51084	31.02083	0.38178	4802.146	29.0256	 
155.0	1.0	0.0	8.37148	-5.11318	24.15419	47.97462	4.57351	31.39852	0.38178	4657.409	28.9474	 
150.0	1.0	0.0	8.37462	-5.14878	24.11052	48.08079	4.63779	31.77242	0.38178	4513.063	28.8692	 
145.0	1.0	0.0	8.37775	-5.18425	24.06696	48.18844	4.70375	32.14253	0.38178	4369.11	28.7906	 
140.0	1.0	0.0	8.38088	-5.21959	24.0235	48.29761	4.77147	32.50885	0.38178	4225.552	28.7116	 
135.0	1.0	0.0	8.38399	-5.25481	23.98016	48.40837	4.84099	32.8714	0.38178	4082.389	28.6326	 
130.0	1.0	0.0	8.3871	-5.2899	23.93692	48.52076	4.91241	33.23018	0.38178	3939.621	28.5536	 
125.0	1.0	0.0	8.3902	-5.32487	23.89379	48.63486	4.9858	33.5852	0.38178	3797.251	28.474	 
120.0	1.0	0.0	8.39329	-5.35971	23.85076	48.75074	5.06124	33.93646	0.38177	3655.277	28.3948	 
115.0	1.0	0.0	8.39637	-5.39443	23.80785	48.86846	5.13881	34.28396	0.38177	3513.702	28.315	 
110.0	1.0	0.0	8.39944	-5.42903	23.76504	48.98809	5.21862	34.62771	0.38177	3372.525	28.2354	 
105.0	1.0	0.0	8.4025	-5.4635	23.72234	49.10971	5.30075	34.96771	0.38177	3231.747	28.1556	 
100.0	1.0	0.0	8.40555	-5.49785	23.67975	49.23341	5.38531	35.30397	0.38177	3091.367	28.076	 
95.0	1.0	0.0	8.4086	-5.53208	23.63726	49.35927	5.4724	35.63649	0.38177	2951.385	27.9964	 
90.0	1.0	0.0	8.41164	-5.56619	23.59489	49.48738	5.56215	35.96528	0.38177	2811.802	27.9166	 
85.0	1.0	0.0	8.41467	-5.60017	23.55262	49.61783	5.65466	36.29033	0.38177	2672.616	27.8372	 
80.0	1.0	0.0	8.41769	-5.63403	23.51046	49.75073	5.75008	36.61165	0.38177	2533.827	27.7578	 
75.0	1.0	0.0	8.4207	-5.66778	23.4684	49.88619	5.84854	36.92925	0.38177	2395.434	27.6786	 
70.0	1.0	0.0	8.4237	-5.7014	23.42646	50.02431	5.95019	37.24313	0.38177	2257.436	27.5996	 
65.0	1.0	0.0	8.42669	-5.7349	23.38462	50.16521	6.05518	37.55329	0.38176	2119.831	27.521	 
60.0	1.0	0.0	8.42968	-5.76829	23.34289	50.30902	6.16368	37.85972	0.38176	1982.618	27.4426	 
55.0	1.0	0.0	8.43265	-5.80155	23.30127	50.45588	6.27586	38.16245	0.38176	1845.794	27.3648	 
50.0	1.0	0.0	8.43562	-5.8347	23.25976	50.60592	6.39192	38.46145	0.38176	1709.357	27.2874	 
45.0	1.0	0.0	8.43858	-5.86773	23.21836	50.7593	6.51205	38.75675	0.38176	1573.304	27.2106	 
40.0	1.0	0.0	8.44153	-5.90065	23.17706	50.91617	6.63647	39.04834	0.38176	1437.633	27.1342	 
35.0	1.0	0.0	8.44448	-5.93344	23.13588	51.07671	6.76542	39.33622	0.38176	1302.339	27.0588	 
30.0	1.0	0.0	8.44741	-5.96612	23.09478	51.2411	6.89914	39.6204	0.38176	1167.419	26.984	 
25.0	1.0	0.0	8.45034	-5.99869	 	51.40954	7.0379	39.90087	0.38176	1032.868	 	 
