T (C)	Fraction solid (wt)-TOTAL	Fraction liquid (wt)-LIQUID	Density (g/(cm)^3)-TOTAL	Molar volume (cm^3)-TOTAL	Volume change (%)-  	Average expansion coeff. (10e-6 1/K)-  	Thermal conductivity (W/(m*K))-TOTAL	Electrical resistivity (10e-6 Ohm*m)-TOTAL	Electrical conductivity (10e6 1/(Ohm*m))-TOTAL	Young's modulus (GPa)-TOTAL	Bulk modulus (GPa)-TOTAL	Shear modulus(GPa)-TOTAL	Poisson's ratio-TOTAL	Liquid viscosity (mPa s)-  	Total viscosity (mPa s)-  	Liquid diffusivity (10e-9 (m^2)/s)-  	Total diffusivity (10e-9 (m^2)/s)-  	Surface Tension (mN/m)-  	Enthalpy (J/mole)-TOTAL	Specific heat (J/(mole K))-TOTAL	Latent heat (J/mole)-TOTAL
1500.0	0.0	1.0	6.71257	8.00441	0.0	32.52268	32.3641	1.78525	0.56014	0.0	99.89713	0.0	0.49208	5.85489	5.85489	1.47813	1.47813	1585.21209	63694.886	 	0.0
1495.0	0.0	1.0	6.71655	7.99966	-0.0592387	32.47965	32.2871	1.78446	0.56039	0.0	100.09091	0.0	0.49208	5.90408	5.90408	1.46168	1.46168	1586.42216	63473.812	44.2148	0.0
1490.0	0.0	1.0	6.72053	7.99494	-0.11832	32.43673	32.2101	1.78367	0.56064	0.0	100.28469	0.0	0.49208	5.95397	5.95397	1.44534	1.44534	1587.62709	63253.209	44.1206	0.0
1485.0	0.0	1.0	6.72449	7.99022	-0.17724	32.39393	32.1331	1.78288	0.56089	0.0	100.47848	0.0	0.49208	6.00456	6.00456	1.4291	1.4291	1588.82683	63033.073	44.0272	0.0
1480.0	0.0	1.0	6.72845	7.98552	-0.236	32.35126	32.05609	1.78208	0.56114	0.0	100.67226	0.0	0.49208	6.05588	6.05588	1.41296	1.41296	1590.02134	62813.402	43.9342	0.0
1475.0	0.0	1.0	6.73241	7.98083	-0.2946	32.3087	31.97909	1.78127	0.5614	0.0	100.86604	0.0	0.49208	6.10793	6.10793	1.39692	1.39692	1591.21059	62594.192	43.842	0.0
1470.0	0.0	1.0	6.73636	7.97615	-0.35305	32.26628	31.90209	1.78046	0.56165	0.0	101.05982	0.0	0.49208	6.16074	6.16074	1.38098	1.38098	1592.39452	62375.441	43.7502	0.0
1465.0	0.0	1.0	6.7403	7.97148	-0.41133	32.22398	31.82509	1.77965	0.56191	0.0	101.25361	0.0	0.49208	6.2143	6.2143	1.36515	1.36515	1593.5731	62157.146	43.659	0.0
1460.0	0.0	1.0	6.74424	7.96683	-0.46946	32.18181	31.74809	1.77884	0.56216	0.0	101.44739	0.0	0.49208	6.26865	6.26865	1.34943	1.34943	1594.74629	61939.305	43.5682	0.0
1455.0	0.0	1.0	6.74817	7.96219	-0.52743	32.13976	31.67109	1.77802	0.56242	0.0	101.64117	0.0	0.49208	6.32379	6.32379	1.3338	1.3338	1595.91403	61721.913	43.4784	0.0
1450.0	0.0	1.0	6.75209	7.95756	-0.58523	32.09785	31.59409	1.77719	0.56268	0.0	101.83495	0.0	0.49208	6.37974	6.37974	1.31828	1.31828	1597.0763	61504.986	43.3854	0.0
1445.0	0.0	1.0	6.75601	7.95295	-0.64288	32.05607	31.51709	1.77637	0.56295	0.0	102.02874	0.0	0.49208	6.43651	6.43651	1.30286	1.30286	1598.23304	61288.548	43.2876	0.0
1440.0	0.0	1.0	6.75992	7.94835	-0.70037	32.01442	31.44008	1.77554	0.56321	0.0	102.22252	0.0	0.49208	6.49413	6.49413	1.28754	1.28754	1599.38422	61072.594	43.1908	0.0
1435.0	0.0	1.0	6.76382	7.94376	-0.7577	31.97291	31.36308	1.7747	0.56348	0.0	102.4163	0.0	0.49208	6.5526	6.5526	1.27233	1.27233	1600.52978	60857.12	43.0948	0.0
1430.0	0.0	1.0	6.76772	7.93918	-0.81488	31.93153	31.28608	1.77386	0.56374	0.0	102.61008	0.0	0.49208	6.61195	6.61195	1.25722	1.25722	1601.66969	60642.124	42.9992	0.0
1425.0	0.0	1.0	6.77162	7.93462	-0.87189	31.89029	31.20908	1.77302	0.56401	0.0	102.80387	0.0	0.49208	6.67218	6.67218	1.24221	1.24221	1602.80389	60427.603	42.9042	0.0
1420.0	0.0	1.0	6.7755	7.93007	-0.92874	31.84919	31.13208	1.77217	0.56428	0.0	102.99765	0.0	0.49208	6.73333	6.73333	1.2273	1.2273	1603.93235	60213.553	42.81	0.0
1415.0	0.0	1.0	6.77938	7.92553	-0.98544	31.80823	31.05508	1.77132	0.56455	0.0	103.19143	0.0	0.49208	6.79541	6.79541	1.2125	1.2125	1605.05502	59999.971	42.7164	0.0
1410.0	0.0	1.0	6.78325	7.921	-1.04198	31.76741	30.97808	1.77046	0.56482	0.0	103.38521	0.0	0.49208	6.85843	6.85843	1.1978	1.1978	1606.17185	59786.855	42.6232	0.0
1405.0	0.0	1.0	6.78712	7.91649	-1.09835	31.72673	30.90108	1.7696	0.5651	0.0	103.57899	0.0	0.49208	6.92242	6.92242	1.1832	1.1832	1607.2828	59574.201	42.5308	0.0
1400.0	0.0	1.0	6.79098	7.91199	-1.15457	31.6862	30.82407	1.76873	0.56538	0.0	103.77278	0.0	0.49208	6.98739	6.98739	1.16871	1.16871	1608.38781	59362.005	42.4392	0.0
1395.0	0.0	1.0	6.79483	7.9075	-1.21063	31.64582	30.74707	1.76786	0.56565	0.0	103.96656	0.0	0.49208	7.05337	7.05337	1.15432	1.15432	1609.48685	59150.266	42.3478	0.0
1390.0	0.0	1.0	6.79868	7.90303	-1.26653	31.60558	30.67007	1.76699	0.56593	0.0	104.16034	0.0	0.49208	7.12037	7.12037	1.14003	1.14003	1610.57987	58938.979	42.2574	0.0
1385.0	0.0	1.0	6.80252	7.89857	-1.32227	31.5655	30.59307	1.76611	0.56622	0.0	104.35412	0.0	0.49208	7.18842	7.18842	1.12584	1.12584	1611.66681	58728.143	42.1672	0.0
1383.28	0.0	1.0	6.80384	7.89703	-1.34143	31.55172	30.56656	1.76581	0.56631	0.0	104.42084	0.0	0.49208	7.21209	7.21209	1.12098	1.12098	1612.03959	58655.662	42.1085	0.0030
1380.0	0.0560301	0.94397	6.81536	7.8837	-1.508	31.15934	30.68059	1.75576	0.56955	5.88827E-4	102.79915	1.98418E-4	0.4838	7.22034	7.82422	1.11748	1.03124	1610.98206	58012.35	196.209	505.404
1378.62	0.0782403	0.92176	6.81998	7.87843	-1.57383	31.00569	30.72533	1.75174	0.57086	0.00224872	102.16419	7.59437E-4	0.48052	7.22392	8.21599	1.116	0.98124	1610.54244	57754.195	 	705.519
1375.0	0.21017	0.78983	6.84627	7.84822	-1.95121	30.02289	30.95879	1.73472	0.57646	0.023926	100.28507	0.00818133	0.46223	7.23556	25.44735	1.11176	0.31611	1606.42106	56091.337	384.203	2216.474
1370.0	0.35789	0.64211	6.87682	7.81335	-2.38684	28.89951	31.21547	1.71524	0.58301	0.3033	98.31646	0.10521	0.44147	7.25344	162.24473	1.10566	0.0494303	1601.0748	54187.744	380.719	3910.566
1365.0	0.47186	0.52814	6.90148	7.78567	-2.73265	28.02333	31.40619	1.69964	0.58836	1.18951	96.89343	0.41731	0.42523	7.27396	504.97164	1.09918	0.0158334	1596.06789	52671.991	303.151	5217.259
1360.0	0.56024	0.43976	6.92161	7.76326	-3.01265	27.32855	31.5441	1.68704	0.59275	2.83046	95.87673	1.00196	0.41247	7.29605	1059.17801	1.09251	0.00752565	1591.39027	51452.205	243.957	6228.423
1355.0	0.62932	0.37068	6.93818	7.74495	-3.24139	26.7755	31.64074	1.67674	0.5964	5.21654	95.16198	1.8599	0.40237	7.32027	1786.9348	1.08556	0.00444705	1587.01811	50457.261	198.989	7015.178
1350.26	0.68121	0.31879	6.95132	7.73051	-3.42183	26.35208	31.70135	1.66866	0.59928	8.0912	94.69543	2.90071	0.39469	7.345	2593.93054	1.07876	0.00305462	1583.12913	49673.367	 	7602.111
1350.0	0.6841	0.3159	6.95212	7.72965	-3.43255	26.32642	31.70483	1.66821	0.59944	8.28877	94.6694	2.97245	0.39426	7.34672	2646.27358	1.07833	0.00299372	1582.90676	49629.284	165.595	7635.399
1345.0	0.73375	0.26625	6.96624	7.71421	-3.62547	25.86885	31.75755	1.66031	0.6023	12.54542	94.25129	4.52303	0.38684	7.37711	3714.02623	1.07058	0.00212648	1578.91681	48853.913	155.074	8203.444
1340.0	0.7719	0.2281	6.97767	7.70173	-3.78143	25.51497	31.78369	1.65382	0.60466	17.27361	94.00987	6.25378	0.38105	7.40971	4825.20668	1.06258	0.00163172	1575.18973	48215.466	127.689	8634.993
1335.0	0.80083	0.19917	6.98681	7.69171	-3.9065	25.24832	31.78805	1.64847	0.60662	22.04433	93.90661	8.00681	0.3766	7.44448	5931.42231	1.05434	0.00132329	1571.70105	47690.078	105.078	8953.908
1330.0	0.82449	0.17551	6.99481	7.68299	-4.01546	25.0267	31.7797	1.64377	0.60836	26.89784	93.88765	9.79596	0.37291	7.48128	7073.56932	1.04589	0.00110617	1568.42977	47226.813	92.653	9211.121
1325.0	0.84408	0.15592	7.00192	7.67523	-4.11241	24.83858	31.7617	1.63958	0.60991	31.66525	93.9332	11.55835	0.3698	7.51965	8250.5979	1.03731	9.45407E-4	1565.3604	46811.566	83.0494	9420.737
1320.0	0.86045	0.13955	7.00834	7.66827	-4.19938	24.67842	31.73602	1.63577	0.61133	36.22192	94.02973	13.24713	0.36716	7.55988	9465.2757	1.02856	8.21505E-4	1562.46765	46433.926	75.528	9593.163
1315.0	0.87431	0.12569	7.01422	7.66191	-4.2789	24.53902	31.70413	1.63228	0.61264	40.49683	94.16582	14.83519	0.36489	7.60145	10722.56472	1.01972	7.22902E-4	1559.74096	46086.121	69.561	9736.171
1310.0	0.88612	0.11388	7.01964	7.65604	-4.35217	24.41708	31.6672	1.62903	0.61386	44.45102	94.33399	16.30727	0.36292	7.64486	12028.52986	1.01074	6.42386E-4	1557.16231	45762.261	64.772	9855.647
1305.0	0.89627	0.10373	7.02471	7.65058	-4.42034	24.30938	31.62622	1.62599	0.61501	48.08166	94.52761	17.6616	0.36119	7.68973	13390.76217	1.00167	5.75214E-4	1554.71696	45457.831	60.886	9956.102
1300.0	0.90508	0.094921	7.02948	7.64545	-4.48445	24.213	31.58185	1.62312	0.6161	51.39914	94.74213	18.90142	0.35966	7.73635	14816.88222	0.99248	5.18203E-4	1552.39548	45169.334	57.6994	10041.034
1295.0	0.91277	0.0872289	7.034	7.64061	-4.54495	24.12666	31.5347	1.62038	0.61714	54.42316	94.974	20.03353	0.3583	7.78447	16315.21609	0.98321	4.69117E-4	1550.18274	44894.024	55.062	10113.184
1290.0	0.91953	0.0804703	7.03833	7.63598	-4.60286	24.04748	31.48515	1.61775	0.61814	57.1839	95.2197	21.06878	0.35708	7.83381	17894.55825	0.9739	4.2635E-4	1548.07811	44629.73	52.8588	10174.722
1285.0	0.9255	0.0744955	7.04248	7.63154	-4.65822	23.97536	31.43363	1.61522	0.61911	59.7068	95.47729	22.01627	0.35597	7.88464	19564.26304	0.96453	3.88716E-4	1546.065	44374.718	51.0024	10227.381
1280.0	0.93082	0.0691836	7.04649	7.62727	-4.71156	23.90884	31.38042	1.61277	0.62005	62.01873	95.74483	22.88578	0.35496	7.93704	21334.20737	0.95508	3.55323E-4	1544.13918	44127.588	49.426	10272.556
1275.0	0.93556	0.0644367	7.05037	7.62314	-4.76319	23.84696	31.32574	1.61038	0.62097	64.14558	96.02045	23.68676	0.35404	7.99086	23214.68011	0.9456	3.2549E-4	1542.29533	43887.205	48.0766	10311.383
1270.0	0.93982	0.0601762	7.05414	7.61913	-4.81337	23.78907	31.26981	1.60805	0.62187	66.10885	96.30311	24.42707	0.35319	8.04593	25216.60983	0.93609	2.98681E-4	1540.52715	43652.637	46.9136	10344.787
1265.0	0.94367	0.0563329	7.05783	7.61521	-4.86223	23.73472	31.21279	1.60577	0.62275	67.92755	96.59177	25.11369	0.3524	8.10239	27351.86551	0.92656	2.74472E-4	1538.82869	43423.119	45.9036	10373.537
1260.0	0.94715	0.0528546	7.06143	7.61141	-4.90975	23.68411	31.15487	1.60353	0.62363	69.61966	96.88557	25.75322	0.35167	8.16073	29632.9984	0.91694	2.5252E-4	1537.18844	43198.013	45.0212	10398.267
1255.0	0.95031	0.0496932	7.06496	7.60767	-4.95644	23.63564	31.09608	1.60132	0.62448	71.19996	97.18364	26.35113	0.35098	8.2202	32073.37168	0.90734	2.32546E-4	1535.61445	42976.788	44.245	10419.503
1250.0	0.95319	0.046811	7.06843	7.60401	-5.00221	23.58966	31.03659	1.59914	0.62534	72.6817	97.48548	26.91231	0.35034	8.28128	34687.49541	0.8977	2.14317E-4	1534.09585	42758.999	43.5578	10437.691
1245.0	0.95583	0.0441741	7.07184	7.6004	-5.04728	23.54548	30.97642	1.59699	0.62618	74.07597	97.79046	27.44087	0.34974	8.34345	37491.15617	0.88809	1.97639E-4	1532.63464	42544.275	42.9448	10453.199
1240.0	0.95825	0.041755	7.07521	7.59686	-5.09154	23.50345	30.9157	1.59485	0.62702	75.39256	98.09825	27.94041	0.34917	8.40758	40501.16732	0.87841	1.82348E-4	1531.22015	42332.263	42.4024	10466.416
1235.0	0.96047	0.039528	7.07853	7.59337	-5.13519	23.46303	30.85448	1.59274	0.62785	76.63999	98.40843	28.41411	0.34863	8.47286	43735.78816	0.86876	1.68304E-4	1529.85407	42122.683	41.916	10477.641
1230.0	0.96253	0.0374747	7.08181	7.58992	-5.17821	23.42426	30.7928	1.59064	0.62868	77.82498	98.72075	28.86446	0.34811	8.54015	47215.14489	0.85906	1.55385E-4	1528.53063	41915.299	41.4768	10487.105
1225.0	0.96442	0.0355755	7.08506	7.58651	-5.22081	23.3865	30.7307	1.58855	0.62951	78.95521	99.03472	29.29433	0.34762	8.60869	50960.61417	0.84939	1.43485E-4	1527.25546	41709.909	41.078	10495.009
1220.0	0.96618	0.0338152	7.08828	7.58314	-5.26296	23.34984	30.66823	1.58647	0.63033	80.03576	99.35014	29.70561	0.34715	8.67887	54995.66757	0.83971	1.32514E-4	1526.02391	41506.337	40.7144	10501.526
1215.0	0.96782	0.0321804	7.09147	7.5798	-5.30464	23.31441	30.60542	1.5844	0.63115	81.07106	99.66688	30.09994	0.3467	8.75067	59345.83791	0.83003	1.22389E-4	1524.83051	41304.433	40.3808	10506.804
1210.0	0.96934	0.0306598	7.09463	7.5765	-5.34589	23.28005	30.54233	1.58234	0.63197	82.06554	99.98487	30.47896	0.34627	8.82421	64039.58	0.82034	1.13038E-4	1523.67246	41104.065	40.0736	10510.973
1206.1	0.97045	0.0295452	7.09708	7.57394	-5.3779	23.25366	30.49286	1.58074	0.63262	82.81591	100.23376	30.76512	0.34594	8.88258	67961.98597	0.81281	1.06233E-4	1522.79595	40948.614	 	10513.519
1205.0	0.9713	0.0286986	7.09797	7.57299	-5.3898	23.2368	30.47953	1.58026	0.63281	83.26397	100.30703	30.93618	0.34574	8.91827	69277.54224	0.80896	1.04139E-4	1521.97012	40894.454	41.9222	10524.81
1200.0	0.97476	0.0252394	7.10194	7.56872	-5.44308	23.16279	30.41805	1.5781	0.63368	85.14408	100.64079	31.65452	0.3449	9.0834	75503.02012	0.79156	9.5229E-5	1518.45473	40653.583	48.1742	10570.33
1197.01	0.97653	0.0234692	7.10425	7.56625	-5.4739	23.12168	30.38094	1.57681	0.63419	86.14684	100.84069	32.03798	0.34445	9.18397	79406.88301	0.7813	9.03633E-5	1516.45084	40514.029	 	10593.116
1195.0	0.97761	0.0223869	7.10577	7.56462	-5.49426	23.09497	30.35594	1.57596	0.63453	86.77666	100.97452	32.27896	0.34417	9.2521	82104.89339	0.77449	8.72746E-5	1515.15471	40422.158	46.285	10606.824
1190.0	0.98002	0.0199773	7.10948	7.56065	-5.54386	23.03175	30.29335	1.57384	0.63539	88.22825	101.30778	32.8347	0.34352	9.42397	89151.79365	0.75778	8.01024E-5	1512.11296	40197.748	44.882	10636.72
1185.0	0.98207	0.0179296	7.11311	7.55678	-5.59219	22.97214	30.23029	1.57173	0.63624	89.5326	101.64081	33.33449	0.34294	9.59924	96694.18865	0.7414	7.36018E-5	1509.28192	39979.093	43.731	10661.278
1180.0	0.98383	0.0161726	7.11665	7.553	-5.63944	22.91561	30.16683	1.56963	0.63709	90.71887	101.97356	33.78936	0.34242	9.77731	104790.9734	0.7254	6.7682E-5	1506.64148	39765.083	42.802	10681.606
1175.0	0.98535	0.0146497	7.12013	7.5493	-5.68573	22.86175	30.10304	1.56755	0.63794	91.80917	102.30606	34.20771	0.34194	9.95929	113503.0944	0.7097	6.2272E-5	1504.17037	39554.881	42.0404	10698.537
1170.0	0.98668	0.0133196	7.12356	7.54565	-5.73125	22.81001	30.03897	1.56547	0.63879	92.82182	102.63821	34.59648	0.34149	10.14431	122897.5285	0.69435	5.73132E-5	1501.8575	39347.845	41.4072	10712.712
1165.0	0.98785	0.0121495	7.12693	7.54207	-5.77606	22.76019	29.97466	1.56339	0.63964	93.76927	102.97001	34.96043	0.34108	10.33325	133042.7226	0.67929	5.27594E-5	1499.68627	39143.475	40.874	10724.629
1160.0	0.98889	0.0111126	7.13027	7.53853	-5.82027	22.71191	29.91013	1.56132	0.64049	94.66254	103.30141	35.30374	0.34069	10.52563	144014.9726	0.66455	4.85703E-5	1497.65051	38941.377	40.4196	10734.68
1155.0	0.98981	0.0101881	7.13357	7.53503	-5.86394	22.66504	29.84543	1.55924	0.64134	95.50987	103.63238	35.62955	0.34032	10.72147	155895.7098	0.65014	4.47122E-5	1495.73637	38741.239	40.0276	10743.175
1150.0	0.99064	0.00935854	7.13684	7.53158	-5.90711	22.61945	29.78057	1.55717	0.64219	96.31802	103.96288	35.94043	0.33997	10.92112	168774.6765	0.63602	4.11557E-5	1493.93509	38542.808	39.6862	10750.364
1145.0	0.99139	0.0086116	7.14008	7.52816	-5.94987	22.57488	29.71558	1.55509	0.64305	97.09308	104.29293	36.23871	0.33963	11.12472	182749.3525	0.62219	3.7875E-5	1492.23791	38345.878	39.386	10756.452
1140.0	0.99206	0.00793589	7.14329	7.52477	-5.99221	22.53129	29.65047	1.55301	0.64391	97.83892	104.62249	36.52586	0.33931	11.33224	197925.6369	0.60864	3.48476E-5	1490.63893	38150.283	39.119	10761.604
1135.0	0.99268	0.00732111	7.14647	7.52141	-6.03414	22.48877	29.58525	1.55093	0.64478	98.559	104.95151	36.8032	0.339	11.54385	214421.6721	0.59537	3.20529E-5	1489.12613	37955.881	38.8804	10765.958
1130.0	0.99324	0.00676002	7.14964	7.51808	-6.07576	22.44691	29.51993	1.54884	0.64564	99.25769	105.27995	37.07241	0.3387	11.75891	232367.8341	0.5824	2.94724E-5	1487.7031	37762.557	38.6648	10769.629
1125.0	0.99375	0.00624644	7.15278	7.51477	-6.11705	22.40582	29.45453	1.54675	0.64652	99.93714	105.60784	37.33431	0.33841	11.97859	251905.1773	0.56968	2.70896E-5	1486.35413	37570.213	38.4688	10772.712
1120.0	0.99423	0.00577417	7.1559	7.51149	-6.15801	22.3655	29.38904	1.54465	0.6474	100.59886	105.93514	37.58946	0.33813	12.20276	273189.424	0.55722	2.48898E-5	1485.07838	37378.765	38.2896	10775.289
1115.0	0.99466	0.00533909	7.15901	7.50824	-6.19869	22.32576	29.32348	1.54255	0.64828	101.24541	106.26185	37.83885	0.33785	12.43081	296394.1261	0.54503	2.28588E-5	1483.87402	37188.145	38.124	10777.428
1110.0	0.99506	0.00493602	7.16209	7.505	-6.23913	22.28653	29.25787	1.54044	0.64917	101.87886	106.58796	38.08327	0.33758	12.66395	321710.8485	0.53307	2.09841E-5	1482.73285	36998.29	37.971	10779.187
1105.0	0.99544	0.00456292	7.16516	7.50179	-6.27927	22.24799	29.19218	1.53832	0.65006	102.49928	106.91343	38.32275	0.33732	12.90177	349348.6838	0.52136	1.92541E-5	1481.65031	36809.149	37.8282	10780.617
1100.0	0.99578	0.00421564	7.16822	7.49859	-6.31921	22.2098	29.12644	1.5362	0.65096	103.10954	107.23825	38.55839	0.33706	13.14366	379544.9991	0.5099	1.7658E-5	1480.63005	36620.678	37.6942	10781.762
1097.17	0.99597	0.00402959	7.16995	7.49679	-6.34173	22.18845	29.08914	1.535	0.65147	103.45052	107.42214	38.69009	0.33691	13.28288	397896.9931	0.50352	1.68088E-5	1480.07192	36514.1	 	10782.297
1095.0	0.99733	0.00266514	7.17187	7.49474	-6.36737	22.14195	29.06961	1.5336	0.65206	104.38501	107.55928	39.05055	0.33654	13.34606	414897.209	0.50034	1.60946E-5	1478.06495	36413.86	41.3636	10801.635
1090.0	1.0	0.0	7.17605	7.49027	-6.42311	22.04635	29.02256	1.53047	0.65339	106.30026	107.87848	39.78983	0.33577	 	456176.2997	 	1.45847E-5	 	36190.245	44.723	10838.683
1085.0	1.0	0.0	7.17866	7.48755	-6.45713	22.02795	28.95532	1.5284	0.65428	106.7396	108.2018	39.95985	0.33559	 	495718.6077	 	1.33721E-5	 	36034.834	31.0822	 
1080.0	1.0	0.0	7.18126	7.48483	-6.49111	22.00956	28.88808	1.52632	0.65517	107.17892	108.52438	40.1299	0.3354	 	539025.0851	 	1.22525E-5	 	35852.307	36.5054	 
1075.0	1.0	0.0	7.18387	7.48212	-6.52503	21.9912	28.82084	1.52423	0.65607	107.6182	108.84619	40.29999	0.33521	 	586485.1376	 	1.12194E-5	 	35670.065	36.4484	 
1070.0	1.0	0.0	7.18647	7.47941	-6.55889	21.97285	28.7536	1.52212	0.65698	108.05745	109.16724	40.47012	0.33503	 	638531.5993	 	1.02667E-5	 	35488.107	36.3916	 
1065.0	1.0	0.0	7.18907	7.4767	-6.5927	21.95452	28.68636	1.52001	0.65789	108.49666	109.48753	40.64027	0.33484	 	695645.9221	 	9.38865E-6	 	35306.43	36.3354	 
1060.0	1.0	0.0	7.19167	7.474	-6.62646	21.93622	28.61911	1.51789	0.65881	108.93582	109.80704	40.81046	0.33466	 	758364.0233	 	8.58001E-6	 	35125.032	36.2796	 
1055.0	1.0	0.0	7.19427	7.4713	-6.66017	21.91793	28.55187	1.51576	0.65974	109.37492	110.12578	40.98067	0.33447	 	827282.8855	 	7.83574E-6	 	34943.909	36.2246	 
1050.0	1.0	0.0	7.19687	7.46861	-6.69382	21.89966	28.48462	1.51362	0.66067	109.81395	110.44374	41.1509	0.33428	 	903068.006	 	7.15114E-6	 	34763.061	36.1696	 
1045.0	1.0	0.0	7.19946	7.46592	-6.72742	21.8814	28.41737	1.51147	0.66161	110.25291	110.76092	41.32115	0.3341	 	986461.8159	 	6.52186E-6	 	34582.486	36.115	 
1040.0	1.0	0.0	7.20205	7.46323	-6.76096	21.86317	28.35011	1.50931	0.66256	110.6918	111.0773	41.49142	0.33391	 	1078293.201	 	5.9438E-6	 	34402.185	36.0602	 
1035.0	1.0	0.0	7.20464	7.46055	-6.79446	21.84496	28.28286	1.50713	0.66351	111.1306	111.3929	41.66171	0.33373	 	1179488.276	 	5.41316E-6	 	34222.157	36.0056	 
1030.0	1.0	0.0	7.20722	7.45787	-6.8279	21.82677	28.21561	1.50495	0.66447	111.56931	111.7077	41.83201	0.33354	 	1291082.591	 	4.92637E-6	 	34042.402	35.951	 
1025.0	1.0	0.0	7.20981	7.4552	-6.86128	21.80859	28.14835	1.50276	0.66544	112.00792	112.0217	42.00233	0.33335	 	1414234.97	 	4.48012E-6	 	33862.92	35.8964	 
1020.0	1.0	0.0	7.21239	7.45253	-6.89462	21.79044	28.08109	1.50056	0.66642	112.44643	112.33489	42.17265	0.33317	 	1550243.208	 	4.07132E-6	 	33683.71	35.842	 
1015.0	1.0	0.0	7.21497	7.44987	-6.9279	21.7723	28.01383	1.49834	0.6674	112.88483	112.64728	42.34297	0.33298	 	1700561.899	 	3.6971E-6	 	33504.772	35.7876	 
1010.0	1.0	0.0	7.21754	7.44721	-6.96113	21.75419	27.94656	1.49612	0.6684	113.3231	112.95885	42.5133	0.3328	 	1866822.703	 	3.35476E-6	 	33326.105	35.7334	 
1005.0	1.0	0.0	7.22012	7.44455	-6.99431	21.73609	27.8793	1.49389	0.66939	113.76126	113.26961	42.68363	0.33261	 	2050857.391	 	3.04182E-6	 	33147.708	35.6794	 
1000.0	1.0	0.0	7.22269	7.4419	-7.02743	21.71801	27.81203	1.49164	0.6704	114.19928	113.57955	42.85396	0.33242	 	2254724.092	 	2.75596E-6	 	32969.58	35.6256	 
