T (C)	Fraction solid (wt)-TOTAL	Fraction liquid (wt)-LIQUID	Density (g/(cm)^3)-TOTAL	Molar volume (cm^3)-TOTAL	Volume change (%)-  	Average expansion coeff. (10e-6 1/K)-  	Thermal conductivity (W/(m*K))-TOTAL	Electrical resistivity (10e-6 Ohm*m)-TOTAL	Electrical conductivity (10e6 1/(Ohm*m))-TOTAL	Young's modulus (GPa)-TOTAL	Bulk modulus (GPa)-TOTAL	Shear modulus(GPa)-TOTAL	Poisson's ratio-TOTAL	Liquid viscosity (mPa s)-  	Total viscosity (mPa s)-  	Liquid diffusivity (10e-9 (m^2)/s)-  	Total diffusivity (10e-9 (m^2)/s)-  	Surface Tension (mN/m)-  	Enthalpy (J/mole)-TOTAL	Specific heat (J/(mole K))-TOTAL	Latent heat (J/mole)-TOTAL
1500.0	0.0	1.0	6.95848	7.84627	0.0	29.10099	31.40085	1.84002	0.54347	0.0	106.05592	0.0	0.49974	6.60666	6.60666	1.30994	1.30994	1763.73146	64623.775	 	0.0
1495.0	0.0	1.0	6.9624	7.84187	-0.0561804	29.05617	31.32479	1.83928	0.54369	0.0	106.2401	0.0	0.49974	6.66422	6.66422	1.29496	1.29496	1765.54887	64402.465	44.262	0.0
1490.0	0.0	1.0	6.9663	7.83747	-0.1122	29.01145	31.24873	1.83855	0.54391	0.0	106.42427	0.0	0.49974	6.72261	6.72261	1.28008	1.28008	1767.36339	64181.655	44.162	0.0
1485.0	0.0	1.0	6.9702	7.83309	-0.16807	28.96683	31.17266	1.83781	0.54413	0.0	106.60845	0.0	0.49974	6.78185	6.78185	1.2653	1.2653	1769.17501	63961.343	44.0624	0.0
1480.0	0.0	1.0	6.97409	7.82871	-0.22379	28.9223	31.0966	1.83706	0.54435	0.0	106.79263	0.0	0.49974	6.84196	6.84196	1.25062	1.25062	1770.98368	63741.524	43.9638	0.0
1475.0	0.0	1.0	6.97798	7.82436	-0.27934	28.87787	31.02054	1.83631	0.54457	0.0	106.97681	0.0	0.49974	6.90294	6.90294	1.23604	1.23604	1772.78938	63522.197	43.8654	0.0
1470.0	0.0	1.0	6.98185	7.82001	-0.33474	28.83354	30.94448	1.83556	0.54479	0.0	107.16098	0.0	0.49974	6.96482	6.96482	1.22155	1.22155	1774.59207	63303.357	43.768	0.0
1465.0	0.0	1.0	6.98573	7.81567	-0.38999	28.78931	30.86842	1.83481	0.54502	0.0	107.34516	0.0	0.49974	7.02762	7.02762	1.20716	1.20716	1776.39171	63085.001	43.6712	0.0
1460.0	0.0	1.0	6.98959	7.81135	-0.44507	28.74518	30.79236	1.83405	0.54524	0.0	107.52934	0.0	0.49974	7.09135	7.09135	1.19287	1.19287	1778.18828	62867.127	43.5748	0.0
1455.0	0.0	1.0	6.99345	7.80704	-0.5	28.70116	30.7163	1.83329	0.54547	0.0	107.71352	0.0	0.49974	7.15604	7.15604	1.17868	1.17868	1779.98173	62649.731	43.4792	0.0
1450.0	0.0	1.0	6.9973	7.80274	-0.55478	28.65723	30.64024	1.83252	0.5457	0.0	107.89769	0.0	0.49974	7.22169	7.22169	1.16458	1.16458	1781.77203	62432.839	43.3784	0.0
1445.0	0.0	1.0	7.00115	7.79846	-0.6094	28.61341	30.56418	1.83175	0.54593	0.0	108.08187	0.0	0.49974	7.28834	7.28834	1.15059	1.15059	1783.55913	62216.497	43.2684	0.0
1440.0	0.0	1.0	7.00499	7.79418	-0.66386	28.5697	30.48812	1.83098	0.54616	0.0	108.26605	0.0	0.49974	7.35599	7.35599	1.13669	1.13669	1785.34301	62000.698	43.1598	0.0
1435.0	0.0	1.0	7.00882	7.78992	-0.71817	28.52609	30.41205	1.8302	0.54639	0.0	108.45023	0.0	0.49974	7.42467	7.42467	1.12289	1.12289	1787.12363	61785.436	43.0524	0.0
1430.0	0.0	1.0	7.01264	7.78567	-0.77232	28.48259	30.33599	1.82942	0.54662	0.0	108.6344	0.0	0.49974	7.49441	7.49441	1.10918	1.10918	1788.90094	61570.709	42.9454	0.0
1428.55	0.0	1.0	7.01375	7.78445	-0.78799	28.47	30.31395	1.82919	0.54669	0.0	108.68778	0.0	0.49974	7.51481	7.51481	1.10523	1.10523	1789.41537	61508.574	42.8819	0.0070
1425.0	0.14454	0.85546	7.03785	7.75784	-1.1271	27.63083	30.54258	1.81171	0.55197	0.0322014	107.35834	0.0108764	0.48033	7.54169	12.99989	1.09899	0.63756	1787.49798	59731.841	500.344	1624.669
1420.0	0.30415	0.69585	7.06506	7.72811	-1.50602	26.70784	30.79258	1.79171	0.55813	0.64504	105.94834	0.22112	0.4586	7.5795	91.91441	1.09029	0.089908	1785.03265	57738.193	398.73	3404.647
1415.0	0.42456	0.57544	7.08643	7.70499	-1.80062	26.00647	30.97453	1.77592	0.56309	2.4933	104.95914	0.86455	0.44197	7.61689	336.92442	1.08173	0.0244549	1782.79665	56195.238	308.591	4734.457
1412.6	0.4697	0.5303	7.09466	7.69613	-1.91351	25.74535	31.03832	1.76975	0.56505	3.76198	104.62214	1.31018	0.43568	7.63508	512.13557	1.07762	0.0160655	1781.77927	55597.578	 	5229.985
1410.0	0.5186	0.4814	7.10367	7.6864	-2.03758	25.45661	31.13669	1.76144	0.56772	5.12497	103.90864	1.7936	0.42868	7.64858	767.01506	1.07406	0.0107104	1780.49565	54982.397	242.568	5734.674
1405.0	0.59589	0.40411	7.11839	7.67068	-2.23797	25.0025	31.2819	1.74806	0.57206	8.0998	102.89413	2.85698	0.41755	7.67454	1381.71339	1.06725	0.00592788	1778.25361	53976.034	201.273	6528.926
1400.0	0.65521	0.34479	7.13035	7.65796	-2.4	24.65003	31.37911	1.73745	0.57556	11.26456	102.23168	3.99761	0.40891	7.70045	2110.41385	1.06049	0.00386949	1776.23267	53159.517	163.303	7133.845
1395.0	0.70168	0.29832	7.14028	7.64747	-2.53373	24.37272	31.44165	1.72881	0.57843	14.46349	101.8138	5.15791	0.40207	7.72711	2916.05835	1.05367	0.00279207	1774.40318	52478.604	136.183	7603.669
1390.0	0.73873	0.26127	7.14873	7.63855	-2.6474	24.14867	31.47848	1.72161	0.58085	17.61537	101.5692	6.30674	0.39655	7.7541	3774.56972	1.04686	0.00215056	1772.74522	51896.89	116.343	7974.801
1385.0	0.76873	0.23127	7.15606	7.63083	-2.74576	23.96533	31.49602	1.71548	0.58293	20.6817	101.45118	7.42862	0.39203	7.78143	4671.70504	1.04004	0.00173235	1771.23845	51389.421	101.494	8272.189
1380.0	0.79367	0.20633	7.16264	7.62392	-2.83386	23.80911	31.49939	1.71012	0.58475	23.69732	101.42359	8.53514	0.38822	7.80911	5610.08011	1.03323	0.00143824	1769.86986	50935.346	90.815	8516.682
1375.0	0.81481	0.18519	7.16867	7.61769	-2.91322	23.67612	31.4923	1.70534	0.58639	26.68631	101.46467	9.63436	0.38495	7.83747	6593.48387	1.02638	0.00122002	1768.61794	50521.526	82.764	8721.416
1370.0	0.83294	0.16706	7.17429	7.6119	-2.98709	23.55747	31.47662	1.70101	0.58789	29.65728	101.55756	10.72897	0.38211	7.86585	7623.87022	1.01957	0.00105193	1767.48044	50139.609	76.3834	8894.74
1365.0	0.84865	0.15135	7.17957	7.60655	-3.05528	23.45391	31.4543	1.69704	0.58926	32.61653	101.69203	11.82089	0.37961	7.89521	8705.47424	1.01269	9.18434E-4	1766.43623	49783.38	71.2458	9042.866
1360.0	0.8624	0.1376	7.18461	7.60145	-3.12023	23.3587	31.42632	1.69336	0.59054	35.57035	101.8583	12.9122	0.37739	7.92454	9842.9492	1.00586	8.09818E-4	1765.48786	49448.135	67.049	9170.494
1355.0	0.87453	0.12547	7.18943	7.59663	-3.18171	23.2726	31.39382	1.68993	0.59174	38.51814	102.05081	14.0025	0.3754	7.95457	11041.74936	0.999	7.19686E-4	1764.61939	49130.254	63.5762	9281.241
1350.0	0.88532	0.11468	7.19409	7.59203	-3.24031	23.194	31.35753	1.68669	0.59288	41.4562	102.26474	15.09027	0.37361	7.98527	12307.66863	0.9921	6.43679E-4	1763.82368	48826.912	60.6684	9377.931
1345.0	0.89494	0.10506	7.19861	7.58758	-3.29701	23.12024	31.31795	1.68362	0.59396	44.38079	102.49561	16.17408	0.37197	8.01623	13647.26162	0.98522	5.78709E-4	1763.10069	48535.994	58.1836	9462.674
1340.0	0.90362	0.0963829	7.20303	7.58328	-3.35187	23.05117	31.27563	1.68069	0.595	47.28379	102.74081	17.25085	0.37048	8.04754	15067.64536	0.97836	5.22536E-4	1762.44159	48255.56	56.0868	9537.407
1338.06	0.90662	0.0933762	7.20467	7.58168	-3.37228	23.02681	31.25832	1.67959	0.59538	48.36383	102.84008	17.65171	0.36995	8.05993	15634.7446	0.97568	5.02976E-4	1762.19336	48150.273	 	9562.883
1335.0	0.91247	0.0875341	7.20789	7.57854	-3.41229	22.96561	31.23418	1.6777	0.59605	50.5516	102.97838	18.46371	0.36894	8.08282	16644.93255	0.97107	4.71554E-4	1762.55673	47970.659	56.9802	9617.08
1330.0	0.92122	0.0787772	7.21299	7.57364	-3.47463	22.87389	31.19233	1.67473	0.59711	54.11483	103.21889	19.78721	0.36742	8.1208	18378.45153	0.96352	4.25747E-4	1763.17499	47686.291	56.8736	9696.687
1325.0	0.92904	0.070965	7.21789	7.569	-3.53378	22.79064	31.1475	1.67191	0.59812	57.58795	103.47422	21.07858	0.36603	8.15893	20213.15608	0.95603	3.85896E-4	1763.82369	47412.937	54.6708	9765.747
1320.0	0.93605	0.0639509	7.22262	7.56457	-3.59029	22.71446	31.10037	1.6692	0.59909	60.94093	103.74148	22.32669	0.36476	8.19745	22160.13828	0.94856	3.5089E-4	1764.50109	47148.924	52.8026	9825.929
1315.0	0.94238	0.0576192	7.2272	7.56033	-3.64437	22.64478	31.05122	1.6666	0.60003	64.14758	104.01889	23.52176	0.36358	8.23625	24230.4758	0.94113	3.19902E-4	1765.20065	46892.91	51.2028	9878.573
1310.0	0.94813	0.051873	7.23165	7.55625	-3.69633	22.58073	31.0003	1.66408	0.60093	67.1916	104.30455	24.65767	0.36249	8.27595	26436.44167	0.93366	2.92284E-4	1765.91867	46643.803	49.8214	9924.767
1305.0	0.95336	0.046635	7.23601	7.55229	-3.74676	22.52071	30.94779	1.66164	0.60182	70.06467	104.59692	25.73124	0.36147	8.31561	28790.80917	0.92628	2.67535E-4	1766.66174	46400.709	48.6188	9965.403
1300.0	0.95816	0.0418409	7.24027	7.54847	-3.79554	22.46507	30.89394	1.65926	0.60268	72.76259	104.89507	26.74078	0.36052	8.35633	31307.18525	0.91884	2.45252E-4	1767.41773	46162.881	47.5656	10001.225
1295.0	0.96257	0.0374345	7.24446	7.54474	-3.84304	22.41279	30.83887	1.65694	0.60352	75.28952	105.19797	27.6877	0.35962	8.39747	34000.56742	0.91144	2.25107E-4	1768.1902	45929.698	46.6366	10032.852
1290.0	0.96663	0.0333709	7.24859	7.5411	-3.88943	22.3634	30.78271	1.65467	0.60435	77.6522	105.50484	28.57439	0.35877	8.43907	36886.8961	0.90405	2.06831E-4	1768.97864	45700.63	45.8136	10060.81
1285.0	0.97039	0.0296093	7.25266	7.53754	-3.93477	22.31673	30.7256	1.65244	0.60516	79.8598	105.81504	29.40413	0.35797	8.48158	39983.09418	0.89664	1.90204E-4	1769.77809	45475.228	45.0804	10085.544
1280.0	0.97389	0.0261147	7.25669	7.53405	-3.97921	22.27242	30.66762	1.65026	0.60597	81.9253	106.12802	30.18164	0.3572	8.52508	43308.35559	0.8892	1.75036E-4	1770.5872	45253.105	44.4246	10107.442
1275.0	0.97714	0.0228596	7.26067	7.53063	-4.02283	22.23021	30.60886	1.6481	0.60676	83.86089	106.44334	30.91136	0.35647	8.5696	46882.9628	0.88174	1.6117E-4	1771.40425	45033.927	43.8356	10126.836
1270.0	0.98018	0.0198164	7.26461	7.52726	-4.06583	22.18955	30.54939	1.64598	0.60754	85.68043	106.76048	31.59835	0.35577	8.61482	50729.20898	0.87428	1.48469E-4	1772.23464	44817.402	43.305	10144.012
1265.0	0.98304	0.0169624	7.26853	7.52393	-4.1082	22.15046	30.48928	1.64388	0.60832	87.39612	107.0792	32.24709	0.3551	8.66089	54870.94843	0.86681	1.36818E-4	1773.07214	44603.276	42.8252	10159.223
1260.0	0.98572	0.014275	7.27243	7.52065	-4.14999	22.1128	30.4286	1.6418	0.60909	89.02196	107.39921	32.86271	0.35445	8.70855	59335.75645	0.85926	1.26112E-4	1773.91312	44391.324	42.3904	10172.692
1255.0	0.98826	0.0117369	7.2763	7.51741	-4.19133	22.07623	30.36739	1.63974	0.60985	90.56936	107.72017	33.44943	0.35383	8.7568	64152.22251	0.85174	1.16263E-4	1774.7632	44181.348	41.9952	10184.613
1252.09	0.99055	0.00945257	7.27907	7.51535	-4.21764	22.04799	30.3325	1.6385	0.61031	91.82675	107.90629	33.92634	0.35333	8.78604	67378.831	0.84729	1.10484E-4	1775.25519	44052.796	 	10197.905
1250.0	0.99228	0.00772424	7.28075	7.51358	-4.24014	22.01644	30.30784	1.63759	0.61065	92.80267	108.05317	34.29767	0.3529	8.88064	69825.15738	0.83711	1.06468E-4	1774.60694	43947.603	46.749	10220.731
1245.0	0.99533	0.00467437	7.28457	7.50958	-4.29107	21.94959	30.24771	1.63546	0.61145	94.63645	108.39918	34.99635	0.35209	9.11023	75734.01534	0.81334	9.78386E-5	1773.28362	43712.436	47.0334	10258.694
1240.0	0.99739	0.00260784	7.28817	7.50581	-4.33918	21.89094	30.18653	1.63338	0.61223	96.02613	108.73891	35.52664	0.35147	9.34214	81841.80459	0.79054	9.02388E-5	1772.14332	43492.73	43.9412	10281.625
1235.0	0.99888	0.00112002	7.29164	7.50217	-4.38551	21.83731	30.12453	1.63133	0.613	97.15985	109.07448	35.95975	0.35095	9.57561	88269.40942	0.76871	8.33914E-5	1771.15659	43282.232	42.0996	10295.78
1230.0	1.0	0.0	7.29502	7.49864	-4.43061	21.78712	30.0623	1.62929	0.61377	98.13211	109.40697	36.33152	0.35051	 	95100.04809	 	7.71451E-5	 	43077.694	40.9076	10304.403
1225.0	1.0	0.0	7.29763	7.49595	-4.46478	21.77074	29.99713	1.6274	0.61448	98.56608	109.73119	36.49807	0.35029	 	102030.1763	 	7.1666E-5	 	42839.142	47.7104	 
1220.0	1.0	0.0	7.30024	7.49328	-4.49891	21.75437	29.93195	1.6255	0.6152	98.99993	110.05431	36.66463	0.35007	 	109517.2515	 	6.65438E-5	 	42652.37	37.3544	 
1215.0	1.0	0.0	7.30284	7.4906	-4.53299	21.73803	29.86677	1.62359	0.61592	99.43363	110.37635	36.83118	0.34986	 	117610.0703	 	6.17574E-5	 	42465.867	37.3006	 
1210.0	1.0	0.0	7.30545	7.48793	-4.56702	21.7217	29.8016	1.62167	0.61665	99.8672	110.6973	36.99774	0.34964	 	126362.0499	 	5.72869E-5	 	42279.638	37.2458	 
1205.0	1.0	0.0	7.30805	7.48527	-4.601	21.70539	29.73642	1.61975	0.61738	100.30061	111.01717	37.16429	0.34942	 	135831.6972	 	5.31134E-5	 	42093.686	37.1904	 
1200.0	1.0	0.0	7.31065	7.4826	-4.63493	21.6891	29.67124	1.61782	0.61812	100.73388	111.33594	37.33085	0.3492	 	146083.13	 	4.92191E-5	 	41908.013	37.1346	 
1195.0	1.0	0.0	7.31325	7.47995	-4.66881	21.67283	29.60606	1.61587	0.61886	101.167	111.65363	37.4974	0.34899	 	157186.6537	 	4.5587E-5	 	41722.619	37.0788	 
1190.0	1.0	0.0	7.31585	7.47729	-4.70265	21.65658	29.54089	1.61392	0.61961	101.59996	111.97024	37.66395	0.34877	 	169219.4024	 	4.22013E-5	 	41537.504	37.023	 
1185.0	1.0	0.0	7.31844	7.47464	-4.73643	21.64034	29.47571	1.61197	0.62036	102.03276	112.28576	37.83049	0.34855	 	182266.0501	 	3.90466E-5	 	41352.667	36.9674	 
1180.0	1.0	0.0	7.32103	7.47199	-4.77016	21.62413	29.41053	1.61	0.62112	102.46539	112.60019	37.99702	0.34833	 	196419.6017	 	3.61087E-5	 	41168.108	36.9118	 
1175.0	1.0	0.0	7.32362	7.46935	-4.80385	21.60793	29.34535	1.60802	0.62188	102.89786	112.91354	38.16355	0.34812	 	211782.2719	 	3.33742E-5	 	40983.825	36.8566	 
1170.0	1.0	0.0	7.32621	7.46671	-4.83749	21.59175	29.28017	1.60604	0.62265	103.33016	113.22581	38.33007	0.3479	 	228466.4629	 	3.08302E-5	 	40799.818	36.8014	 
1165.0	1.0	0.0	7.3288	7.46408	-4.87108	21.57559	29.21498	1.60404	0.62342	103.76228	113.53699	38.49657	0.34768	 	246595.8535	 	2.84646E-5	 	40616.087	36.7462	 
1160.0	1.0	0.0	7.33138	7.46144	-4.90462	21.55945	29.1498	1.60204	0.6242	104.19422	113.84709	38.66306	0.34746	 	266306.6119	 	2.62661E-5	 	40432.632	36.691	 
1155.0	1.0	0.0	7.33397	7.45882	-4.93811	21.54332	29.08462	1.60003	0.62499	104.62598	114.15611	38.82954	0.34725	 	287748.7475	 	2.42241E-5	 	40249.451	36.6362	 
1150.0	1.0	0.0	7.33655	7.45619	-4.97156	21.52722	29.01944	1.59801	0.62578	105.05756	114.46405	38.996	0.34703	 	311087.619	 	2.23282E-5	 	40066.543	36.5816	 
1145.0	1.0	0.0	7.33913	7.45357	-5.00495	21.51113	28.95425	1.59598	0.62657	105.48894	114.77091	39.16245	0.34681	 	336505.6175	 	2.05692E-5	 	39883.91	36.5266	 
1140.0	1.0	0.0	7.3417	7.45095	-5.0383	21.49506	28.88907	1.59394	0.62738	105.92013	115.07669	39.32888	0.34659	 	364204.0463	 	1.89378E-5	 	39701.548	36.4724	 
1135.0	1.0	0.0	7.34428	7.44834	-5.0716	21.47901	28.82388	1.59189	0.62818	106.35113	115.3814	39.49529	0.34638	 	394405.2223	 	1.74258E-5	 	39519.459	36.4178	 
1130.0	1.0	0.0	7.34685	7.44573	-5.10485	21.46298	28.7587	1.58984	0.629	106.78192	115.68502	39.66168	0.34616	 	427354.8252	 	1.60252E-5	 	39337.642	36.3634	 
1125.0	1.0	0.0	7.34942	7.44313	-5.13805	21.44697	28.69351	1.58777	0.62981	107.21252	115.98757	39.82804	0.34594	 	463324.5282	 	1.47284E-5	 	39156.095	36.3094	 
1120.0	1.0	0.0	7.35199	7.44053	-5.17121	21.43097	28.62832	1.5857	0.63064	107.6429	116.28904	39.99439	0.34573	 	502614.9424	 	1.35285E-5	 	38974.819	36.2552	 
1115.0	1.0	0.0	7.35456	7.43793	-5.20431	21.415	28.56314	1.58361	0.63147	108.07308	116.58944	40.16071	0.34551	 	545558.9184	 	1.24189E-5	 	38793.812	36.2014	 
1110.0	1.0	0.0	7.35713	7.43533	-5.23737	21.39904	28.49795	1.58152	0.6323	108.50304	116.88876	40.327	0.34529	 	592525.2477	 	1.13933E-5	 	38613.075	36.1474	 
1105.0	1.0	0.0	7.35969	7.43274	-5.27038	21.3831	28.43276	1.57941	0.63315	108.93278	117.18701	40.49327	0.34507	 	643922.818	 	1.0446E-5	 	38432.605	36.094	 
1100.0	1.0	0.0	7.36225	7.43016	-5.30335	21.36718	28.36757	1.5773	0.634	109.36231	117.48419	40.65951	0.34486	 	700205.2792	 	9.57148E-6	 	38252.404	36.0402	 
1095.0	1.0	0.0	7.36481	7.42758	-5.33627	21.35128	28.30238	1.57517	0.63485	109.79161	117.78029	40.82572	0.34464	 	761876.2885	 	8.76468E-6	 	38072.47	35.9868	 
1090.0	1.0	0.0	7.36737	7.425	-5.36913	21.3354	28.23719	1.57304	0.63571	110.22068	118.07533	40.9919	0.34442	 	829495.4089	 	8.02078E-6	 	37892.802	35.9336	 
1085.0	1.0	0.0	7.36993	7.42242	-5.40196	21.31953	28.172	1.5709	0.63658	110.64953	118.36929	41.15804	0.3442	 	903684.7501	 	7.33529E-6	 	37713.4	35.8804	 
1080.0	1.0	0.0	7.37248	7.41985	-5.43473	21.30369	28.10681	1.56874	0.63745	111.07814	118.66219	41.32416	0.34399	 	985136.4477	 	6.70403E-6	 	37534.264	35.8272	 
1075.0	1.0	0.0	7.37503	7.41728	-5.46746	21.28786	28.04162	1.56658	0.63833	111.50651	118.95402	41.49024	0.34377	 	1074621.095	 	6.12307E-6	 	37355.392	35.7744	 
1070.0	1.0	0.0	7.37758	7.41472	-5.50014	21.27205	27.97642	1.56441	0.63922	111.93465	119.24479	41.65628	0.34355	 	1172997.258	 	5.58874E-6	 	37176.783	35.7218	 
1065.0	1.0	0.0	7.38013	7.41216	-5.53277	21.25626	27.91123	1.56222	0.64011	112.36254	119.53448	41.82229	0.34333	 	1281222.21	 	5.09762E-6	 	36998.438	35.669	 
1060.0	1.0	0.0	7.38268	7.4096	-5.56535	21.24049	27.84604	1.56003	0.64101	112.79018	119.82312	41.98826	0.34312	 	1400364.073	 	4.64649E-6	 	36820.356	35.6164	 
1055.0	1.0	0.0	7.38522	7.40705	-5.59789	21.22473	27.78084	1.55783	0.64192	113.21758	120.11069	42.15419	0.3429	 	1531615.541	 	4.23237E-6	 	36642.535	35.5642	 
1050.0	1.0	0.0	7.38777	7.4045	-5.63038	21.209	27.71565	1.55561	0.64283	113.64472	120.3972	42.32008	0.34268	 	1676309.406	 	3.85249E-6	 	36464.976	35.5118	 
1045.0	1.0	0.0	7.39031	7.40195	-5.66283	21.19328	27.65045	1.55339	0.64375	114.07161	120.68265	42.48593	0.34246	 	1835936.153	 	3.50424E-6	 	36287.677	35.4598	 
1040.0	1.0	0.0	7.39285	7.39941	-5.69523	21.17758	27.58525	1.55115	0.64468	114.49824	120.96704	42.65174	0.34225	 	2012163.9	 	3.18521E-6	 	36110.638	35.4078	 
1035.0	1.0	0.0	7.39538	7.39687	-5.72758	21.1619	27.52006	1.54891	0.64562	114.92461	121.25037	42.8175	0.34203	 	2206861.019	 	2.89314E-6	 	35933.858	35.356	 
1030.0	1.0	0.0	7.39792	7.39434	-5.75988	21.14624	27.45486	1.54665	0.64656	115.35071	121.53264	42.98322	0.34181	 	2422121.825	 	2.62594E-6	 	35757.336	35.3044	 
1025.0	1.0	0.0	7.40045	7.39181	-5.79214	21.1306	27.38966	1.54439	0.64751	115.77654	121.81386	43.14889	0.34159	 	2660295.764	 	2.38167E-6	 	35581.072	35.2528	 
1020.0	1.0	0.0	7.40298	7.38928	-5.82435	21.11498	27.32446	1.54211	0.64846	116.20211	122.09402	43.31451	0.34138	 	2924020.616	 	2.15852E-6	 	35405.065	35.2014	 
1015.0	1.0	0.0	7.40551	7.38675	-5.85652	21.09937	27.25926	1.53982	0.64943	116.6274	122.37312	43.48009	0.34116	 	3216260.284	 	1.9548E-6	 	35229.314	35.1502	 
1010.0	1.0	0.0	7.40804	7.38423	-5.88864	21.08379	27.19406	1.53752	0.6504	117.05241	122.65118	43.64561	0.34094	 	3540347.861	 	1.76896E-6	 	35053.818	35.0992	 
1005.0	1.0	0.0	7.41057	7.38172	-5.92071	21.06822	27.12886	1.53521	0.65138	117.47714	122.92818	43.81109	0.34072	 	3900034.723	 	1.59956E-6	 	34878.577	35.0482	 
1000.0	1.0	0.0	7.41309	7.37921	-5.95274	21.05267	27.06365	1.53289	0.65236	117.90159	123.20413	43.97651	0.34051	 	4299546.585	 	1.44525E-6	 	34703.59	34.9974	 
995.0	1.0	0.0	7.41561	7.3767	-5.98472	21.03714	26.99845	1.53056	0.65336	118.32576	123.47903	44.14188	0.34029	 	4743647.514	 	1.3048E-6	 	34528.856	34.9468	 
990.0	1.0	0.0	7.41813	7.37419	-6.01665	21.02162	26.93325	1.52821	0.65436	118.74963	123.75289	44.3072	0.34007	 	5237713.146	 	1.17706E-6	 	34354.375	34.8962	 
985.0	1.0	0.0	7.42065	7.37169	-6.04854	21.00613	26.86804	1.52586	0.65537	119.17322	124.02569	44.47246	0.33985	 	5787814.461	 	1.06097E-6	 	34180.144	34.8462	 
980.0	1.0	0.0	7.42316	7.36919	-6.08038	20.99065	26.80284	1.52349	0.65639	119.59651	124.29746	44.63766	0.33964	 	6400813.769	 	9.55553E-7	 	34006.165	34.7958	 
975.0	1.0	0.0	7.42568	7.3667	-6.11218	20.9752	26.73763	1.52111	0.65741	120.0195	124.56817	44.80281	0.33942	 	7084474.759	 	8.59896E-7	 	33832.435	34.746	 
970.0	1.0	0.0	7.42819	7.3642	-6.14393	20.95976	26.67243	1.51872	0.65845	120.44219	124.83785	44.9679	0.3392	 	7847588.802	 	7.73168E-7	 	33658.955	34.696	 
965.0	1.0	0.0	7.4307	7.36172	-6.17564	20.94434	26.60722	1.51632	0.65949	120.86458	125.10648	45.13293	0.33898	 	8700120.062	 	6.946E-7	 	33485.723	34.6464	 
