T (C)	Fraction solid (wt)-TOTAL	Fraction liquid (wt)-LIQUID	Density (g/(cm)^3)-TOTAL	Molar volume (cm^3)-TOTAL	Volume change (%)-  	Average expansion coeff. (10e-6 1/K)-  	Thermal conductivity (W/(m*K))-TOTAL	Electrical resistivity (10e-6 Ohm*m)-TOTAL	Electrical conductivity (10e6 1/(Ohm*m))-TOTAL	Young's modulus (GPa)-TOTAL	Bulk modulus (GPa)-TOTAL	Shear modulus(GPa)-TOTAL	Poisson's ratio-TOTAL	Liquid viscosity (mPa s)-  	Total viscosity (mPa s)-  	Liquid diffusivity (10e-9 (m^2)/s)-  	Total diffusivity (10e-9 (m^2)/s)-  	Surface Tension (mN/m)-  	Enthalpy (J/mole)-TOTAL	Specific heat (J/(mole K))-TOTAL	Latent heat (J/mole)-TOTAL
1500.0	0.0	1.0	6.88404	7.74222	0.0	27.24729	32.47719	1.77904	0.5621	0.0	100.04019	0.0	0.49975	6.10903	6.10903	1.41664	1.41664	1784.20373	65182.233	 	0.0
1495.0	0.0	1.0	6.88787	7.7379	-0.0557039	27.19842	32.40418	1.77802	0.56242	0.0	100.22332	0.0	0.49975	6.16014	6.16014	1.40093	1.40093	1786.18271	64963.061	43.8344	0.0
1490.0	0.0	1.0	6.8917	7.7336	-0.11125	27.14962	32.33118	1.77699	0.56275	0.0	100.40644	0.0	0.49975	6.21196	6.21196	1.38531	1.38531	1788.15911	64744.457	43.7208	0.0
1485.0	0.0	1.0	6.89553	7.72932	-0.16665	27.10088	32.25817	1.77596	0.56307	0.0	100.58957	0.0	0.49975	6.26453	6.26453	1.36979	1.36979	1790.13292	64526.417	43.608	0.0
1480.0	0.0	1.0	6.89935	7.72504	-0.22188	27.0522	32.18516	1.77493	0.5634	0.0	100.7727	0.0	0.49975	6.31784	6.31784	1.35437	1.35437	1792.10409	64308.937	43.496	0.0
1475.0	0.0	1.0	6.90316	7.72077	-0.27697	27.00359	32.11215	1.77389	0.56373	0.0	100.95583	0.0	0.49975	6.37191	6.37191	1.33905	1.33905	1794.07259	64092.013	43.3848	0.0
1470.0	0.0	1.0	6.90696	7.71652	-0.3319	26.95505	32.03914	1.77285	0.56406	0.0	101.13895	0.0	0.49975	6.42676	6.42676	1.32382	1.32382	1796.03838	63875.642	43.2742	0.0
1465.0	0.0	1.0	6.91076	7.71228	-0.38667	26.90656	31.96613	1.7718	0.5644	0.0	101.32208	0.0	0.49975	6.48241	6.48241	1.30869	1.30869	1798.00142	63659.818	43.1648	0.0
1460.0	0.0	1.0	6.91455	7.70805	-0.44129	26.85815	31.89312	1.77075	0.56473	0.0	101.50521	0.0	0.49975	6.53886	6.53886	1.29366	1.29366	1799.96168	63444.54	43.0556	0.0
1455.0	0.0	1.0	6.91833	7.70384	-0.49575	26.8098	31.82011	1.76969	0.56507	0.0	101.68834	0.0	0.49975	6.59613	6.59613	1.27873	1.27873	1801.91912	63229.802	42.9476	0.0
1450.0	0.0	1.0	6.92211	7.69963	-0.55006	26.76152	31.7471	1.76863	0.56541	0.0	101.87146	0.0	0.49975	6.65424	6.65424	1.2639	1.2639	1803.8737	63015.603	42.8398	0.0
1445.0	0.0	1.0	6.92588	7.69544	-0.60421	26.71331	31.67409	1.76756	0.56575	0.0	102.05459	0.0	0.49975	6.7132	6.7132	1.24916	1.24916	1805.82537	62801.941	42.7324	0.0
1440.0	0.0	1.0	6.92965	7.69126	-0.6582	26.66516	31.60108	1.76649	0.56609	0.0	102.23772	0.0	0.49975	6.77304	6.77304	1.23452	1.23452	1807.7741	62588.812	42.6258	0.0
1435.0	0.0	1.0	6.93341	7.68709	-0.71205	26.61709	31.52807	1.76541	0.56644	0.0	102.42085	0.0	0.49975	6.83377	6.83377	1.21998	1.21998	1809.71986	62376.214	42.5196	0.0
1430.0	0.0	1.0	6.93716	7.68293	-0.76573	26.56908	31.45506	1.76433	0.56679	0.0	102.60397	0.0	0.49975	6.8954	6.8954	1.20554	1.20554	1811.66258	62164.141	42.4146	0.0
1425.0	0.0	1.0	6.9409	7.67879	-0.81926	26.52115	31.38205	1.76324	0.56714	0.0	102.7871	0.0	0.49975	6.95795	6.95795	1.19119	1.19119	1813.60224	61952.59	42.3102	0.0
1423.95	0.0	1.0	6.94169	7.67792	-0.83049	26.51108	31.36672	1.76302	0.56721	0.0	102.82555	0.0	0.49975	6.9712	6.9712	1.18819	1.18819	1814.00915	61908.233	42.2488	0.0020
1420.0	0.0544301	0.94557	6.95254	7.66592	-0.98544	26.17125	31.4397	1.75483	0.56986	4.27595E-4	100.51722	1.43331E-4	0.49163	6.97443	7.51237	1.18488	1.10003	1813.97043	61239.735	169.236	501.822
1415.0	0.1162	0.8838	6.9651	7.65219	-1.16275	25.78892	31.51767	1.74532	0.57296	0.00901488	97.93822	0.0030407	0.48237	6.97898	8.80849	1.18061	0.9354	1813.97019	60461.659	155.615	1069.382
1410.0	0.17117	0.82883	6.97664	7.63956	-1.32597	25.44185	31.58112	1.73665	0.57582	0.0430548	95.68585	0.014604	0.47407	6.98342	12.19981	1.17636	0.67337	1814.0233	59748.607	142.61	1572.43
1405.0	0.22035	0.77965	6.98719	7.62818	-1.47296	25.13617	31.63299	1.72865	0.57848	0.11989	93.71539	0.0408717	0.46661	6.98832	19.37428	1.17205	0.42276	1814.11926	59090.657	131.59	2020.883
1400.0	0.26461	0.73539	6.99699	7.61765	-1.6089	24.85828	31.67445	1.72125	0.58097	0.25259	91.98535	0.0865139	0.45985	6.9931	31.8811	1.16776	0.25615	1814.25955	58479.779	122.176	2422.77
1395.0	0.30462	0.69538	7.0061	7.60786	-1.73543	24.60402	31.70663	1.71436	0.58331	0.44923	90.46303	0.15451	0.45371	6.99799	51.02482	1.16345	0.15957	1814.44153	57909.403	114.075	2784.654
1390.0	0.34092	0.65908	7.01455	7.59891	-1.85095	24.37805	31.73141	1.70789	0.58552	0.71353	89.12424	0.24637	0.44811	7.00331	77.88182	1.15908	0.10423	1814.65631	57374.111	107.058	3111.951
1385.0	0.37401	0.62599	7.02252	7.59048	-1.95989	24.16845	31.74911	1.70181	0.58761	1.04603	87.94379	0.36246	0.44297	7.00843	113.33328	1.15476	0.071409	1814.90863	56869.393	100.944	3409.169
1380.0	0.40427	0.59573	7.03002	7.58254	-2.06245	23.97492	31.7606	1.69606	0.5896	1.44464	86.90374	0.50222	0.43824	7.01363	158.09202	1.15042	0.0510375	1815.19489	56391.47	95.5846	3680.084
1375.0	0.43204	0.56796	7.03706	7.57521	-2.15714	23.80173	31.76703	1.69059	0.59151	1.90585	85.98974	0.66457	0.43389	7.01927	212.80126	1.14602	0.0378015	1815.50692	55937.155	90.863	3927.877
1370.0	0.45759	0.54241	7.04377	7.56817	-2.24798	23.63793	31.76834	1.68539	0.59333	2.42514	85.18581	0.84804	0.42986	7.02467	277.98952	1.14166	0.0288493	1815.85202	55503.741	86.6828	4155.257
1365.0	0.48117	0.51883	7.05013	7.56153	-2.33375	23.48705	31.76543	1.68042	0.59509	2.99761	84.48135	1.05097	0.42611	7.03015	354.20515	1.1373	0.0225728	1816.22358	55088.917	82.9648	4364.527
1360.0	0.50297	0.49703	7.05621	7.55523	-2.41519	23.34716	31.75864	1.67564	0.59679	3.61802	83.8663	1.27159	0.42263	7.03574	441.95069	1.13293	0.0180359	1816.62045	54690.698	79.6438	4557.671
1359.44	0.50538	0.49462	7.05687	7.55459	-2.42347	23.3338	31.7578	1.67511	0.59697	3.69192	83.80103	1.29792	0.42225	7.03652	452.73539	1.13241	0.0176002	1816.66399	54646.454	 	4578.889
1359.44	0.50538	0.49462	7.05687	7.55459	-2.42347	23.3338	31.7578	1.67511	0.59697	3.69192	83.80103	1.29792	0.42225	7.03652	452.73541	1.13241	0.0176002	1816.66399	54646.455	 	4578.888
1355.0	0.53463	0.46537	7.06429	7.5467	-2.52534	23.12557	31.77302	1.66976	0.59889	4.51343	83.64692	1.59142	0.41805	7.03057	604.37014	1.13029	0.0131486	1816.73163	54159.306	106.278	4884.464
1350.0	0.56473	0.43527	7.07214	7.53848	-2.63152	22.91351	31.78365	1.66407	0.60093	5.53989	83.55446	1.95938	0.41369	7.02366	806.31671	1.12793	0.00982516	1816.84769	53642.675	103.326	5196.968
1345.0	0.59214	0.40786	7.07948	7.53085	-2.73003	22.72156	31.78786	1.65873	0.60287	6.67057	83.53089	2.36599	0.40968	7.01677	1042.09596	1.12556	0.00757875	1817.00439	53156.581	97.2188	5479.405
1340.0	0.61715	0.38285	7.08642	7.52378	-2.82138	22.54848	31.78662	1.65367	0.60472	7.90072	83.56608	2.80966	0.40599	7.00953	1312.50293	1.12324	0.00599876	1817.19795	52697.589	91.7984	5735.207
1335.0	0.64	0.36	7.09301	7.51714	-2.90714	22.39	31.78024	1.64887	0.60647	9.22368	83.64975	3.2881	0.40259	7.00193	1618.30904	1.12097	0.00485011	1817.42997	52262.753	86.9672	5967.318
1330.0	0.66093	0.33907	7.09921	7.51096	-2.98703	22.24713	31.76931	1.64431	0.60816	10.62964	83.77569	3.79781	0.39944	6.99458	1960.15368	1.11866	0.00399182	1817.69408	51849.534	82.6438	6178.273
1325.0	0.68012	0.31988	7.10511	7.50517	-3.06181	22.11783	31.75434	1.63996	0.60977	12.10972	83.9379	4.33565	0.39653	6.98742	2339.27774	1.11632	0.00333444	1817.98908	51455.732	78.7604	6370.268
1320.0	0.69775	0.30225	7.11075	7.49966	-3.13297	21.99797	31.73546	1.6358	0.61132	13.65163	84.13099	4.89717	0.39383	6.98017	2756.40296	1.11398	0.00282098	1818.31943	51079.429	75.2606	6545.221
1315.0	0.71395	0.28605	7.11611	7.49453	-3.19916	21.89159	31.71339	1.6318	0.61282	15.24342	84.35242	5.47803	0.39132	6.97354	3212.92458	1.11154	0.00241256	1818.67232	50718.946	72.0966	6704.807
1310.0	0.72886	0.27114	7.12126	7.48965	-3.26224	21.79339	31.68815	1.62796	0.61427	16.8731	84.59768	6.07386	0.38899	6.96711	3710.05847	1.10906	0.00208271	1819.05565	50372.801	69.229	6850.505
1305.0	0.74259	0.25741	7.12618	7.48501	-3.32211	21.70383	31.66002	1.62426	0.61567	18.52884	84.86426	6.68031	0.38682	6.96155	4249.29112	1.10644	0.00181267	1819.46506	50039.683	66.6236	6983.623
1300.0	0.75526	0.24474	7.13093	7.48062	-3.37885	21.62272	31.6294	1.62068	0.61703	20.2005	85.15002	7.29363	0.3848	6.95655	4832.83485	1.10373	0.00158875	1819.898	49718.423	64.252	7105.328
1295.0	0.76695	0.23305	7.13549	7.47643	-3.43295	21.54873	31.59638	1.61722	0.61835	21.8765	85.45261	7.90954	0.38292	6.95272	5462.22522	1.10083	0.00140121	1820.3543	49407.971	62.0904	7216.667
1290.0	0.77774	0.22226	7.13991	7.47242	-3.48471	21.48106	31.56123	1.61385	0.61963	23.54927	85.77019	8.5252	0.38116	6.94975	6140.27912	1.09779	0.00124251	1820.83378	49107.38	60.1182	7318.585
1285.0	0.78772	0.21228	7.14416	7.46861	-3.53403	21.42011	31.52417	1.61058	0.62089	25.21015	86.10112	9.13735	0.37951	6.94817	6869.54768	1.09452	0.00110705	1821.332	48815.791	58.3178	7411.937
1280.0	0.79695	0.20305	7.14831	7.4649	-3.58191	21.36294	31.48514	1.60741	0.62212	26.8554	86.44357	9.74459	0.37796	6.9479	7653.55743	1.09105	9.9046E-4	1821.85622	48532.422	56.6738	7497.503
1275.0	0.8055	0.1945	7.15232	7.46137	-3.62746	21.31228	31.44468	1.60429	0.62333	28.47472	86.79708	10.34302	0.37652	6.94918	8494.85836	1.08734	8.89495E-4	1822.39429	48256.561	55.1722	7575.994
1272.0	0.80972	0.19028	7.15446	7.45923	-3.65506	21.28082	31.41957	1.60247	0.62404	29.32496	87.0135	10.65753	0.37579	6.95084	8999.04622	1.08498	8.38034E-4	1822.72529	48100.141	 	7614.324
1270.0	0.83103	0.16897	7.15936	7.4543	-3.71883	21.12373	31.4027	1.60125	0.62451	33.55442	87.32026	12.22922	0.3719	6.99009	10336.11115	1.07749	7.28681E-4	1821.41229	47719.234	107.465	7916.38
1269.88	0.83216	0.16784	7.15962	7.45404	-3.72219	21.11569	31.40166	1.60118	0.62454	33.79371	87.33769	12.31829	0.37169	6.99263	10413.55998	1.07701	7.23206E-4	1821.33276	47698.447	 	7932.434
1265.0	0.88623	0.11377	7.1741	7.43945	-3.91065	20.6311	31.35829	1.59832	0.62566	46.90516	88.12588	17.2214	0.36183	7.13202	14555.79281	1.05262	5.15762E-4	1821.90361	46723.067	199.233	8716.032
1260.0	0.9182	0.0818022	7.18364	7.42979	-4.03535	20.33746	31.30949	1.59561	0.62672	56.40872	88.79492	20.80147	0.35588	7.28521	18061.73443	1.02714	4.14297E-4	1822.18988	46068.718	130.87	9174.291
1255.0	0.93833	0.061668	7.19055	7.42273	-4.1266	20.14304	31.2585	1.593	0.62775	63.18909	89.38926	23.36793	0.35205	7.44626	21115.93549	1.00165	3.53218E-4	1822.25024	45587.52	96.2396	9459.82
1250.0	0.95193	0.0480722	7.19602	7.41707	-4.19972	20.00231	31.20625	1.59045	0.62875	68.20925	89.94025	25.27427	0.34938	7.61502	23924.49747	0.97624	3.10732E-4	1822.13202	45201.678	77.1684	9650.414
1245.0	0.9616	0.0384004	7.20065	7.41225	-4.26195	19.89375	31.15337	1.58792	0.62976	72.0732	90.4645	26.74487	0.34742	7.79062	26619.49239	0.95111	2.78357E-4	1821.85749	44873.098	65.716	9784.163
1240.0	0.96876	0.0312432	7.20474	7.40795	-4.31748	19.80491	31.09974	1.58542	0.63075	75.15269	90.97069	27.91887	0.34591	7.97281	29287.24648	0.92631	2.52168E-4	1821.46391	44581.17	58.3856	9881.678
1235.0	0.97422	0.0257772	7.20849	7.40398	-4.36869	19.72867	31.04602	1.58291	0.63175	77.68381	91.46442	28.88502	0.34471	8.16078	31988.06124	0.90199	2.30114E-4	1820.97944	44313.905	53.453	9954.948
1230.0	0.97851	0.0214932	7.21199	7.40026	-4.41673	19.6616	30.99213	1.58041	0.63275	79.81933	91.9495	29.70096	0.34372	8.35496	34766.60382	0.8781	2.11022E-4	1820.40464	44063.917	49.9976	10011.357
1225.0	0.98194	0.0180649	7.21533	7.39671	-4.46262	19.60068	30.93809	1.5779	0.63375	81.66351	92.42783	30.40613	0.34288	8.55453	37658.73094	0.85476	1.94167E-4	1819.76457	43826.444	47.4946	10055.665
1220.0	0.98473	0.0152693	7.21854	7.39328	-4.5069	19.54428	30.88395	1.57539	0.63476	83.28751	92.90137	31.02751	0.34216	8.75995	40694.44812	0.83193	1.79083E-4	1819.0664	43598.295	45.6298	10091.06
1217.57	0.9859	0.0141	7.22006	7.39165	-4.52795	19.51819	30.85759	1.57417	0.63526	84.01026	93.12999	31.30416	0.34184	8.86152	42229.07095	0.82106	1.72294E-4	1818.71017	43490.158	 	10105.623
1217.57	0.9859	0.0141	7.22006	7.39165	-4.52795	19.51819	30.85759	1.57417	0.63526	84.01026	93.12999	31.30416	0.34184	8.86152	42229.08757	0.82106	1.72294E-4	1818.71018	43490.157	 	10105.623
1215.0	0.98734	0.0126607	7.22175	7.38986	-4.55109	19.48772	30.82906	1.57291	0.63576	84.87675	93.37752	31.63636	0.34144	8.96512	43954.77527	0.81017	1.65245E-4	1817.87266	43370.708	45.5174	10126.302
1210.0	0.98972	0.0102818	7.22496	7.38644	-4.59523	19.43081	30.77382	1.57044	0.63676	86.40647	93.85445	32.22306	0.34076	9.17084	47446.88233	0.78934	1.52568E-4	1816.23511	43145.049	45.1318	10160.023
1205.0	0.99165	0.00835285	7.2281	7.38311	-4.63831	19.37678	30.71889	1.56794	0.63778	87.7671	94.3264	32.74511	0.34016	9.38228	51139.60807	0.76895	1.41074E-4	1814.57627	42926.754	43.659	10186.784
1200.0	0.99324	0.00676103	7.23118	7.37984	-4.68056	19.32491	30.66409	1.56543	0.6388	88.99974	94.79469	33.21821	0.33962	9.59903	55064.60222	0.74904	1.30575E-4	1812.90366	42714.02	42.5468	10208.387
1195.0	0.99457	0.00542755	7.23422	7.37662	-4.72217	19.27465	30.60938	1.56291	0.63983	90.13439	95.26019	33.65381	0.33914	9.82101	59252.81499	0.72963	1.20934E-4	1811.22575	42505.596	41.6848	10226.081
1190.0	0.99571	0.00429435	7.23722	7.37344	-4.76325	19.22566	30.55475	1.56037	0.64087	91.19187	95.72334	34.05989	0.3387	10.04821	63734.49215	0.7107	1.12047E-4	1809.5431	42300.585	41.0022	10240.759
1185.0	0.99668	0.00332204	7.24019	7.37029	-4.8039	19.17765	30.50006	1.55783	0.64192	92.18818	96.18449	34.44258	0.33829	10.28064	68541.08845	0.69226	1.03834E-4	1807.86213	42098.33	40.451	10253.077
1180.0	0.99752	0.00247949	7.24314	7.36717	-4.84413	19.13057	30.44545	1.55527	0.64298	93.13461	96.6443	34.8062	0.3379	10.5192	73705.25434	0.67424	9.62274E-5	1806.17462	41898.34	39.998	10263.524
1175.0	0.99826	0.0017418	7.24606	7.36409	-4.88403	19.08414	30.39092	1.5527	0.64404	94.04047	97.10266	35.15431	0.33754	10.76268	79261.65663	0.65672	8.91738E-5	1804.49577	41700.241	39.6198	10272.472
1170.0	0.99891	0.00109238	7.24897	7.36102	-4.92361	19.03835	30.33648	1.55012	0.64511	94.91268	97.56003	35.48956	0.33719	11.01195	85247.72438	0.63964	8.26257E-5	1802.82307	41503.742	39.2998	10280.21
1165.0	0.99948	5.15656E-4	7.25186	7.35798	-4.96292	18.99306	30.28216	1.54752	0.6462	95.75678	98.01627	35.81408	0.33686	11.26722	91703.40484	0.62298	7.6543E-5	1801.15562	41308.614	39.0256	10286.964
1160.0	1.0	0.0	7.25474	7.35495	-5.00198	18.9482	30.22792	1.5449	0.64729	96.57764	98.47168	36.12975	0.33654	 	98672.84402	 	7.08893E-5	 	41114.676	38.7876	10292.914
1155.0	1.0	0.0	7.25703	7.35263	-5.03201	18.93278	30.17162	1.54239	0.64835	97.13853	98.92027	36.34512	0.33634	 	105989.5904	 	6.57654E-5	 	40903.543	42.2266	 
1150.0	1.0	0.0	7.25932	7.35031	-5.06199	18.91738	30.11533	1.53986	0.64941	97.70019	99.36854	36.56084	0.33613	 	113908.4236	 	6.09792E-5	 	40718.051	37.0984	 
1145.0	1.0	0.0	7.26161	7.34799	-5.09193	18.90199	30.05903	1.53732	0.65048	98.26261	99.81646	36.77692	0.33593	 	122483.6184	 	5.65107E-5	 	40532.737	37.0628	 
1140.0	1.0	0.0	7.2639	7.34567	-5.12182	18.8866	30.00274	1.53478	0.65156	98.82576	100.26402	36.99333	0.33572	 	131774.7572	 	5.23411E-5	 	40347.623	37.0228	 
1135.0	1.0	0.0	7.26619	7.34336	-5.15167	18.87123	29.94645	1.53222	0.65265	99.38961	100.71118	37.21007	0.33552	 	141847.2894	 	4.84523E-5	 	40162.716	36.9814	 
1130.0	1.0	0.0	7.26847	7.34106	-5.18148	18.85587	29.89015	1.52966	0.65374	99.95414	101.15792	37.42713	0.33532	 	152773.1534	 	4.48274E-5	 	39978.017	36.9398	 
1125.0	1.0	0.0	7.27075	7.33875	-5.21124	18.84052	29.83386	1.52708	0.65484	100.51932	101.60422	37.6445	0.33511	 	164631.4692	 	4.14503E-5	 	39793.524	36.8986	 
1120.0	1.0	0.0	7.27303	7.33645	-5.24095	18.82519	29.77756	1.5245	0.65595	101.08513	102.05006	37.86217	0.33491	 	177509.3098	 	3.83057E-5	 	39609.235	36.8578	 
1115.0	1.0	0.0	7.27531	7.33415	-5.27062	18.80986	29.72127	1.5219	0.65707	101.65155	102.49542	38.08014	0.33471	 	191502.5615	 	3.53792E-5	 	39425.149	36.8172	 
1110.0	1.0	0.0	7.27759	7.33186	-5.30025	18.79454	29.66497	1.5193	0.6582	102.21855	102.94026	38.29839	0.3345	 	206716.8839	 	3.26573E-5	 	39241.262	36.7774	 
1105.0	1.0	0.0	7.27986	7.32957	-5.32984	18.77924	29.60868	1.51668	0.65933	102.78611	103.38458	38.51692	0.3343	 	223268.7818	 	3.0127E-5	 	39057.574	36.7376	 
1100.0	1.0	0.0	7.28213	7.32728	-5.35938	18.76394	29.55238	1.51406	0.66048	103.3542	103.82834	38.73571	0.33409	 	241286.802	 	2.77761E-5	 	38874.081	36.6986	 
1095.0	1.0	0.0	7.2844	7.325	-5.38887	18.74866	29.49609	1.51143	0.66163	103.9228	104.27152	38.95476	0.33389	 	260912.8724	 	2.55932E-5	 	38690.782	36.6598	 
1090.0	1.0	0.0	7.28667	7.32272	-5.41832	18.73339	29.43979	1.50878	0.66279	104.49188	104.71412	39.17406	0.33369	 	282303.7998	 	2.35675E-5	 	38507.675	36.6214	 
1085.0	1.0	0.0	7.28894	7.32044	-5.44773	18.71812	29.3835	1.50613	0.66395	105.06143	105.15609	39.39361	0.33348	 	305632.9472	 	2.16887E-5	 	38324.758	36.5834	 
1080.0	1.0	0.0	7.2912	7.31817	-5.4771	18.70287	29.32721	1.50346	0.66513	105.63142	105.59743	39.61338	0.33328	 	331092.1126	 	1.99473E-5	 	38142.027	36.5462	 
1075.0	1.0	0.0	7.29347	7.3159	-5.50642	18.68763	29.27091	1.50079	0.66632	106.20183	106.03811	39.83337	0.33308	 	358893.6362	 	1.83341E-5	 	37959.481	36.5092	 
1070.0	1.0	0.0	7.29573	7.31363	-5.53569	18.6724	29.21462	1.4981	0.66751	106.77263	106.47811	40.05359	0.33287	 	389272.7652	 	1.68406E-5	 	37777.117	36.4728	 
1065.0	1.0	0.0	7.29799	7.31137	-5.56492	18.65718	29.15833	1.49541	0.66871	107.34381	106.91741	40.274	0.33267	 	422490.3093	 	1.54588E-5	 	37594.933	36.4368	 
1060.0	1.0	0.0	7.30024	7.30911	-5.59411	18.64198	29.10204	1.4927	0.66993	107.91533	107.356	40.49462	0.33246	 	458835.6245	 	1.41811E-5	 	37412.925	36.4016	 
1055.0	1.0	0.0	7.3025	7.30685	-5.62326	18.62678	29.04575	1.48999	0.67115	108.48718	107.79384	40.71543	0.33226	 	498629.9699	 	1.30004E-5	 	37231.093	36.3664	 
1050.0	1.0	0.0	7.30475	7.3046	-5.65236	18.61159	28.98946	1.48726	0.67238	109.05933	108.23093	40.93641	0.33206	 	542230.2858	 	1.191E-5	 	37049.432	36.3322	 
1045.0	1.0	0.0	7.307	7.30235	-5.68142	18.59642	28.93318	1.48452	0.67362	109.63176	108.66724	41.15757	0.33185	 	590033.4493	 	1.09037E-5	 	36867.941	36.2982	 
1040.0	1.0	0.0	7.30925	7.3001	-5.71043	18.58125	28.87689	1.48177	0.67487	110.20446	109.10276	41.3789	0.33165	 	642481.0728	 	9.97564E-6	 	36686.615	36.2652	 
1035.0	1.0	0.0	7.31149	7.29786	-5.7394	18.5661	28.82061	1.47901	0.67613	110.77739	109.53746	41.60038	0.33145	 	700064.9169	 	9.12023E-6	 	36505.453	36.2324	 
1030.0	1.0	0.0	7.31374	7.29562	-5.76833	18.55096	28.76433	1.47624	0.6774	111.35053	109.97132	41.82201	0.33124	 	763333.0038	 	8.33234E-6	 	36324.452	36.2002	 
1025.0	1.0	0.0	7.31598	7.29338	-5.79721	18.53583	28.70805	1.47346	0.67867	111.92388	110.40434	42.04379	0.33104	 	832896.5257	 	7.60712E-6	 	36143.607	36.169	 
1020.0	1.0	0.0	7.31822	7.29115	-5.82605	18.52071	28.65177	1.47067	0.67996	112.49739	110.83648	42.26569	0.33084	 	909437.6584	 	6.94005E-6	 	35962.917	36.138	 
1015.0	1.0	0.0	7.32046	7.28892	-5.85485	18.5056	28.5955	1.46787	0.68126	113.07105	111.26774	42.48772	0.33063	 	993718.4067	 	6.32688E-6	 	35782.378	36.1078	 
1010.0	1.0	0.0	7.3227	7.2867	-5.8836	18.4905	28.53923	1.46505	0.68257	113.64485	111.69809	42.70987	0.33043	 	1086590.627	 	5.76366E-6	 	35601.986	36.0784	 
1005.0	1.0	0.0	7.32493	7.28447	-5.91231	18.47541	28.48297	1.46223	0.68389	114.21875	112.12752	42.93212	0.33022	 	1189007.389	 	5.24667E-6	 	35421.738	36.0496	 
1000.0	1.0	0.0	7.32716	7.28225	-5.94098	18.46033	28.42671	1.45939	0.68522	114.79274	112.556	43.15447	0.33002	 	1302035.876	 	4.77247E-6	 	35241.631	36.0214	 
995.0	1.0	0.0	7.32939	7.28004	-5.9696	18.44527	28.37045	1.45654	0.68656	115.36679	112.98353	43.37692	0.32982	 	1426872.034	 	4.33783E-6	 	35061.66	35.9942	 
