T (C)	Fraction solid (wt)-TOTAL	Fraction liquid (wt)-LIQUID	Density (g/(cm)^3)-TOTAL	Molar volume (cm^3)-TOTAL	Volume change (%)-  	Average expansion coeff. (10e-6 1/K)-  	Thermal conductivity (W/(m*K))-TOTAL	Electrical resistivity (10e-6 Ohm*m)-TOTAL	Electrical conductivity (10e6 1/(Ohm*m))-TOTAL	Young's modulus (GPa)-TOTAL	Bulk modulus (GPa)-TOTAL	Shear modulus(GPa)-TOTAL	Poisson's ratio-TOTAL	Liquid viscosity (mPa s)-  	Total viscosity (mPa s)-  	Liquid diffusivity (10e-9 (m^2)/s)-  	Total diffusivity (10e-9 (m^2)/s)-  	Surface Tension (mN/m)-  	Enthalpy (J/mole)-TOTAL	Specific heat (J/(mole K))-TOTAL	Latent heat (J/mole)-TOTAL
1500.0	0.23988	0.76012	7.02837	7.79942	0.0	20.77296	32.87126	1.75771	0.56892	0.18718	96.0938	0.0638878	0.46494	7.16382	16.5261	1.20806	0.52367	1714.51766	65837.938	 	0.0
1495.0	0.85234	0.14766	7.12146	7.69744	-1.30761	17.60597	34.56962	1.66664	0.60001	31.31125	72.94739	11.39795	0.37355	7.17566	1135.33918	1.20266	0.00760117	1704.91967	60117.265	1144.13	5495.962
1490.0	0.96511	0.0348876	7.14108	7.67625	-1.57929	16.99109	34.85454	1.64834	0.60667	52.24707	68.87844	19.26154	0.35625	7.18674	1933.15499	1.19741	0.00445153	1695.263	58894.512	244.551	6494.562
1485.0	0.9919	0.0081012	7.14754	7.66928	-1.66864	16.82652	34.87828	1.64255	0.60881	58.80606	68.19242	21.74823	0.35197	7.19805	2249.40923	1.19214	0.00381482	1685.9702	58441.067	90.689	6724.412
1480.0	1.0	0.0	7.15107	7.66547	-1.71749	16.76213	34.84478	1.63945	0.60996	61.20723	68.25272	22.66032	0.35054	 	2426.92793	 	0.00352573	 	58155.272	57.159	6787.165
1475.0	1.0	0.0	7.15326	7.66313	-1.74753	16.74453	34.7863	1.63753	0.61068	61.63387	68.63936	22.82155	0.35034	 	2536.47688	 	0.00336383	 	57891.695	52.7154	 
1470.0	1.0	0.0	7.15544	7.66079	-1.77752	16.72694	34.72783	1.63559	0.6114	62.06477	69.02974	22.9844	0.35015	 	2651.64227	 	0.00320853	 	57679.57	42.425	 
1465.0	1.0	0.0	7.15762	7.65845	-1.80746	16.70934	34.66935	1.63365	0.61213	62.4999	69.42381	23.14887	0.34996	 	2772.74483	 	0.0030596	 	57467.792	42.3556	 
1460.0	1.0	0.0	7.1598	7.65612	-1.83736	16.69173	34.61087	1.6317	0.61286	62.93922	69.8215	23.31494	0.34976	 	2900.12543	 	0.0029168	 	57256.361	42.2862	 
1455.0	1.0	0.0	7.16198	7.65379	-1.8672	16.67412	34.55239	1.62975	0.61359	63.38268	70.22277	23.48259	0.34957	 	3034.14642	 	0.00277992	 	57045.277	42.2168	 
1450.0	1.0	0.0	7.16415	7.65147	-1.897	16.65651	34.49391	1.62779	0.61433	63.83026	70.62756	23.65181	0.34937	 	3175.19315	 	0.00264874	 	56834.535	42.1484	 
1445.0	1.0	0.0	7.16633	7.64915	-1.92676	16.6389	34.43543	1.62582	0.61507	64.28192	71.0358	23.8226	0.34918	 	3323.67551	 	0.00252307	 	56624.131	42.0808	 
1440.0	1.0	0.0	7.1685	7.64683	-1.95646	16.62128	34.37696	1.62385	0.61582	64.73762	71.44746	23.99493	0.34899	 	3480.02964	 	0.0024027	 	56414.063	42.0136	 
1435.0	1.0	0.0	7.17067	7.64452	-1.98612	16.60366	34.31848	1.62187	0.61657	65.19732	71.86247	24.16879	0.34879	 	3644.71981	 	0.00228743	 	56204.331	41.9464	 
1430.0	1.0	0.0	7.17284	7.64221	-2.01573	16.58604	34.26	1.61988	0.61733	65.66098	72.28079	24.34417	0.3486	 	3818.2403	 	0.00217709	 	55994.933	41.8796	 
1425.0	1.0	0.0	7.175	7.6399	-2.0453	16.56841	34.20152	1.61789	0.61809	66.12857	72.70235	24.52106	0.3484	 	4001.11759	 	0.00207148	 	55785.869	41.8128	 
1420.0	1.0	0.0	7.17716	7.6376	-2.07482	16.55079	34.14304	1.61589	0.61886	66.60006	73.12711	24.69945	0.34821	 	4193.91259	 	0.00197044	 	55577.138	41.7462	 
1415.0	1.0	0.0	7.17932	7.6353	-2.10429	16.53315	34.08457	1.61388	0.61963	67.0754	73.55501	24.87932	0.34802	 	4397.22312	 	0.00187378	 	55368.738	41.68	 
1410.0	1.0	0.0	7.18148	7.63301	-2.13371	16.51552	34.02609	1.61186	0.6204	67.55455	73.986	25.06065	0.34782	 	4611.6865	 	0.00178135	 	55160.669	41.6138	 
1405.0	1.0	0.0	7.18364	7.63072	-2.16308	16.49788	33.96761	1.60984	0.62118	68.03749	74.42002	25.24344	0.34763	 	4837.98245	 	0.00169299	 	54952.929	41.548	 
1400.0	1.0	0.0	7.18579	7.62843	-2.19241	16.48024	33.90913	1.60781	0.62196	68.52417	74.85704	25.42767	0.34743	 	5076.83612	 	0.00160853	 	54745.518	41.4822	 
1395.0	1.0	0.0	7.18794	7.62614	-2.22169	16.46259	33.85065	1.60578	0.62275	69.01456	75.29698	25.61333	0.34724	 	5329.02137	 	0.00152783	 	54538.434	41.4168	 
1390.0	1.0	0.0	7.19009	7.62386	-2.25093	16.44494	33.79217	1.60374	0.62354	69.50862	75.73981	25.8004	0.34705	 	5595.36436	 	0.00145074	 	54331.676	41.3516	 
1385.0	1.0	0.0	7.19224	7.62159	-2.28011	16.42729	33.7337	1.60169	0.62434	70.0063	76.18547	25.98888	0.34685	 	5876.74736	 	0.00137713	 	54125.243	41.2866	 
1380.0	1.0	0.0	7.19439	7.61932	-2.30925	16.40963	33.67522	1.59963	0.62514	70.50759	76.63391	26.17875	0.34666	 	6174.1129	 	0.00130685	 	53919.135	41.2216	 
1375.0	1.0	0.0	7.19653	7.61705	-2.33834	16.39198	33.61674	1.59757	0.62595	71.01243	77.08508	26.36999	0.34646	 	6488.46824	 	0.00123977	 	53713.35	41.157	 
1370.0	1.0	0.0	7.19867	7.61478	-2.36739	16.37431	33.55826	1.5955	0.62676	71.52079	77.53892	26.56259	0.34627	 	6820.89018	 	0.00117577	 	53507.886	41.0928	 
1365.0	1.0	0.0	7.20081	7.61252	-2.39639	16.35665	33.49978	1.59342	0.62758	72.03264	77.9954	26.75655	0.34608	 	7172.53029	 	0.00111473	 	53302.744	41.0284	 
1360.0	1.0	0.0	7.20295	7.61026	-2.42534	16.33898	33.4413	1.59133	0.6284	72.54794	78.45445	26.95184	0.34588	 	7544.62052	 	0.00105651	 	53097.921	40.9646	 
1355.0	1.0	0.0	7.20508	7.60801	-2.45424	16.32131	33.38283	1.58924	0.62923	73.06664	78.91604	27.14845	0.34569	 	7938.47933	 	0.00100102	 	52893.417	40.9008	 
1350.0	1.0	0.0	7.20721	7.60576	-2.48309	16.30364	33.32435	1.58714	0.63006	73.58872	79.3801	27.34638	0.34549	 	8355.51821	 	9.48139E-4	 	52689.231	40.8372	 
1345.0	1.0	0.0	7.20934	7.60351	-2.5119	16.28596	33.26587	1.58503	0.6309	74.11414	79.84659	27.5456	0.3453	 	8797.24889	 	8.97757E-4	 	52485.36	40.7742	 
1340.0	1.0	0.0	7.21147	7.60127	-2.54066	16.26828	33.20739	1.58292	0.63175	74.64285	80.31547	27.74611	0.3451	 	9265.29096	 	8.49772E-4	 	52281.805	40.711	 
1335.0	1.0	0.0	7.21359	7.59903	-2.56937	16.2506	33.14891	1.58079	0.63259	75.17483	80.78667	27.94789	0.34491	 	9761.3803	 	8.04085E-4	 	52078.564	40.6482	 
1330.0	1.0	0.0	7.21572	7.59679	-2.59804	16.23291	33.09043	1.57866	0.63345	75.71003	81.26016	28.15092	0.34472	 	10287.3781	 	7.606E-4	 	51875.636	40.5856	 
1325.0	1.0	0.0	7.21784	7.59456	-2.62666	16.21522	33.03196	1.57653	0.63431	76.24843	81.73589	28.3552	0.34452	 	10845.28066	 	7.19223E-4	 	51673.02	40.5232	 
1320.0	1.0	0.0	7.21996	7.59233	-2.65523	16.19753	32.97348	1.57438	0.63517	76.78997	82.21381	28.56071	0.34433	 	11437.23002	 	6.79865E-4	 	51470.714	40.4612	 
1315.0	1.0	0.0	7.22207	7.59011	-2.68375	16.17983	32.915	1.57223	0.63604	77.33463	82.69387	28.76744	0.34413	 	12065.52552	 	6.42439E-4	 	51268.717	40.3994	 
1310.0	1.0	0.0	7.22419	7.58789	-2.71223	16.16213	32.85652	1.57007	0.63692	77.88236	83.17602	28.97537	0.34394	 	12732.63627	 	6.06863E-4	 	51067.029	40.3376	 
1305.0	1.0	0.0	7.2263	7.58567	-2.74065	16.14443	32.79804	1.5679	0.6378	78.43314	83.66021	29.1845	0.34375	 	13441.2148	 	5.73055E-4	 	50865.648	40.2762	 
1300.0	1.0	0.0	7.22841	7.58346	-2.76903	16.12672	32.73957	1.56572	0.63868	78.98692	84.14641	29.3948	0.34355	 	14194.11175	 	5.40939E-4	 	50664.572	40.2152	 
1295.0	1.0	0.0	7.23051	7.58125	-2.79737	16.10901	32.68109	1.56354	0.63957	79.54367	84.63456	29.60627	0.34336	 	14994.39195	 	5.10441E-4	 	50463.801	40.1542	 
1290.0	1.0	0.0	7.23262	7.57904	-2.82565	16.0913	32.62261	1.56135	0.64047	80.10335	85.12461	29.81889	0.34316	 	15845.35183	 	4.81488E-4	 	50263.333	40.0936	 
1285.0	1.0	0.0	7.23472	7.57684	-2.85389	16.07358	32.56413	1.55915	0.64138	80.66592	85.61652	30.03265	0.34297	 	16750.53836	 	4.54012E-4	 	50063.167	40.0332	 
1280.0	1.0	0.0	7.23682	7.57464	-2.88208	16.05587	32.50565	1.55694	0.64228	81.23134	86.11025	30.24753	0.34278	 	17713.76973	 	4.27946E-4	 	49863.302	39.973	 
1275.0	1.0	0.0	7.23892	7.57244	-2.91022	16.03814	32.44717	1.55473	0.6432	81.79959	86.60575	30.46353	0.34258	 	18739.15772	 	4.03227E-4	 	49663.736	39.9132	 
1270.0	1.0	0.0	7.24101	7.57025	-2.93832	16.02042	32.3887	1.5525	0.64412	82.37062	87.10296	30.68062	0.34239	 	19831.13219	 	3.79793E-4	 	49464.469	39.8534	 
1265.0	1.0	0.0	7.24311	7.56806	-2.96637	16.00269	32.33022	1.55027	0.64505	82.9444	87.60186	30.8988	0.34219	 	20994.46772	 	3.57586E-4	 	49265.499	39.794	 
1260.0	1.0	0.0	7.2452	7.56588	-2.99437	15.98496	32.27174	1.54803	0.64598	83.52088	88.10239	31.11805	0.342	 	22234.3126	 	3.36548E-4	 	49066.824	39.735	 
1255.0	1.0	0.0	7.24729	7.5637	-3.02232	15.96722	32.21326	1.54578	0.64692	84.10003	88.6045	31.33837	0.34181	 	23556.22055	 	3.16626E-4	 	48868.443	39.6762	 
1250.0	1.0	0.0	7.24937	7.56152	-3.05022	15.94949	32.15478	1.54353	0.64787	84.68182	89.10816	31.55972	0.34161	 	24966.18519	 	2.97767E-4	 	48670.356	39.6174	 
1245.0	1.0	0.0	7.25146	7.55935	-3.07808	15.93175	32.0963	1.54127	0.64882	85.26621	89.61331	31.78211	0.34142	 	26470.67779	 	2.79922E-4	 	48472.56	39.5592	 
1240.0	1.0	0.0	7.25354	7.55718	-3.10589	15.914	32.03783	1.53899	0.64978	85.85316	90.11992	32.00552	0.34122	 	28076.68842	 	2.63041E-4	 	48275.057	39.5006	 
1235.0	1.0	0.0	7.25562	7.55502	-3.13365	15.89625	31.97935	1.53671	0.65074	86.44264	90.62793	32.22994	0.34103	 	29791.77097	 	2.47078E-4	 	48077.844	39.4426	 
1230.0	1.0	0.0	7.25769	7.55286	-3.16136	15.8785	31.92087	1.53442	0.65171	87.0346	91.13732	32.45534	0.34084	 	31624.09228	 	2.31991E-4	 	47880.921	39.3846	 
1225.0	1.0	0.0	7.25977	7.5507	-3.18903	15.86075	31.86239	1.53213	0.65269	87.62901	91.64803	32.68173	0.34064	 	33582.48594	 	2.17735E-4	 	47684.286	39.327	 
1220.0	1.0	0.0	7.26184	7.54854	-3.21665	15.84299	31.80391	1.52982	0.65367	88.22584	92.16001	32.90908	0.34045	 	35676.51117	 	2.04271E-4	 	47487.937	39.2698	 
1215.0	1.0	0.0	7.26391	7.54639	-3.24422	15.82523	31.74543	1.52751	0.65466	88.82504	92.67323	33.13739	0.34025	 	37916.51721	 	1.9156E-4	 	47291.872	39.213	 
1210.0	1.0	0.0	7.26597	7.54425	-3.27174	15.80747	31.68696	1.52518	0.65566	89.42658	93.18765	33.36663	0.34006	 	40313.71395	 	1.79564E-4	 	47096.09	39.1564	 
1205.0	1.0	0.0	7.26804	7.5421	-3.29922	15.7897	31.62848	1.52285	0.65666	90.03043	93.70322	33.5968	0.33987	 	42880.24919	 	1.68247E-4	 	46900.588	39.1004	 
1200.0	1.0	0.0	7.2701	7.53997	-3.32664	15.77193	31.57	1.52051	0.65767	90.63654	94.21989	33.82789	0.33967	 	45629.29354	 	1.57576E-4	 	46705.365	39.0446	 
1195.0	1.0	0.0	7.27216	7.53783	-3.35402	15.75416	31.51152	1.51816	0.65869	91.24488	94.73763	34.05987	0.33948	 	48575.13336	 	1.47517E-4	 	46510.42	38.989	 
1190.0	1.0	0.0	7.27422	7.5357	-3.38135	15.73638	31.45304	1.51581	0.65971	91.85542	95.25639	34.29274	0.33928	 	51733.27296	 	1.3804E-4	 	46315.749	38.9342	 
1185.0	1.0	0.0	7.27627	7.53357	-3.40864	15.7186	31.39456	1.51344	0.66075	92.46811	95.77614	34.52648	0.33909	 	55120.54671	 	1.29115E-4	 	46121.351	38.8796	 
1180.0	1.0	0.0	7.27832	7.53145	-3.43587	15.70082	31.33609	1.51107	0.66178	93.08292	96.29683	34.76108	0.3389	 	58755.24227	 	1.20712E-4	 	45927.225	38.8252	 
1175.0	1.0	0.0	7.28037	7.52933	-3.46306	15.68304	31.27761	1.50868	0.66283	93.69982	96.81842	34.99652	0.3387	 	62657.23607	 	1.12805E-4	 	45733.367	38.7716	 
1170.0	1.0	0.0	7.28242	7.52721	-3.4902	15.66525	31.21913	1.50629	0.66388	94.31876	97.34086	35.2328	0.33851	 	66848.14235	 	1.05368E-4	 	45539.777	38.718	 
1165.0	1.0	0.0	7.28447	7.5251	-3.5173	15.64746	31.16065	1.50389	0.66494	94.93971	97.86412	35.4699	0.33831	 	71351.47717	 	9.83757E-5	 	45346.451	38.6652	 
1160.0	1.0	0.0	7.28651	7.52299	-3.54434	15.62966	31.10217	1.50148	0.66601	95.56263	98.38816	35.7078	0.33812	 	76192.83906	 	9.18045E-5	 	45153.389	38.6124	 
1155.0	1.0	0.0	7.28855	7.52088	-3.57134	15.61186	31.0437	1.49906	0.66709	96.18748	98.91294	35.9465	0.33793	 	81400.10802	 	8.56319E-5	 	44960.587	38.5604	 
1150.0	1.0	0.0	7.29059	7.51878	-3.59829	15.59406	30.98522	1.49663	0.66817	96.81424	99.4384	36.18597	0.33773	 	87003.665	 	7.98362E-5	 	44768.043	38.5088	 
1145.0	1.0	0.0	7.29262	7.51668	-3.62519	15.57626	30.92674	1.49419	0.66926	97.44286	99.96453	36.42621	0.33754	 	93036.6339	 	7.43969E-5	 	44575.756	38.4574	 
1140.0	1.0	0.0	7.29465	7.51459	-3.65204	15.55845	30.86826	1.49174	0.67036	98.0733	100.49127	36.6672	0.33734	 	99535.14876	 	6.92945E-5	 	44383.723	38.4066	 
1135.0	1.0	0.0	7.29668	7.5125	-3.67884	15.54064	30.80978	1.48929	0.67146	98.70553	101.01858	36.90894	0.33715	 	106538.6489	 	6.45102E-5	 	44191.942	38.3562	 
1130.0	1.0	0.0	7.29871	7.51041	-3.7056	15.52282	30.7513	1.48682	0.67258	99.33952	101.54644	37.15139	0.33696	 	114090.2048	 	6.00264E-5	 	44000.41	38.3064	 
1125.0	1.0	0.0	7.30074	7.50833	-3.73231	15.50501	30.69283	1.48434	0.6737	99.97522	102.07478	37.39456	0.33676	 	122236.879	 	5.58262E-5	 	43809.125	38.257	 
1120.0	1.0	0.0	7.30276	7.50625	-3.75897	15.48718	30.63435	1.48186	0.67483	100.6126	102.60359	37.63843	0.33657	 	131030.1247	 	5.18936E-5	 	43618.085	38.208	 
1115.0	1.0	0.0	7.30478	7.50417	-3.78558	15.46936	30.57587	1.47936	0.67597	101.25162	103.13281	37.88298	0.33637	 	140526.2275	 	4.82132E-5	 	43427.287	38.1596	 
1110.0	1.0	0.0	7.3068	7.5021	-3.81215	15.45153	30.51739	1.47686	0.67711	101.89224	103.66242	38.12821	0.33618	 	150786.7947	 	4.47706E-5	 	43236.728	38.1118	 
1105.0	1.0	0.0	7.30881	7.50003	-3.83866	15.4337	30.45891	1.47435	0.67827	102.53444	104.19236	38.37409	0.33599	 	161879.2974	 	4.1552E-5	 	43046.406	38.0644	 
1100.0	1.0	0.0	7.31082	7.49797	-3.86513	15.41587	30.40043	1.47182	0.67943	103.17817	104.72261	38.62062	0.33579	 	173877.6725	 	3.85444E-5	 	42856.318	38.0176	 
1095.0	1.0	0.0	7.31283	7.49591	-3.89155	15.39803	30.34196	1.46929	0.6806	103.82339	105.25312	38.86777	0.3356	 	186862.9895	 	3.57353E-5	 	42666.462	37.9712	 
1090.0	1.0	0.0	7.31484	7.49385	-3.91793	15.38019	30.28348	1.46675	0.68178	104.47007	105.78386	39.11555	0.3354	 	200924.1925	 	3.3113E-5	 	42476.835	37.9254	 
1085.0	1.0	0.0	7.31685	7.4918	-3.94425	15.36235	30.225	1.4642	0.68297	105.11817	106.31478	39.36393	0.33521	 	216158.9239	 	3.06663E-5	 	42287.434	37.8802	 
1080.0	1.0	0.0	7.31885	7.48975	-3.97053	15.3445	30.16652	1.46163	0.68417	105.76766	106.84586	39.61291	0.33502	 	232674.4406	 	2.83847E-5	 	42098.256	37.8356	 
1075.0	1.0	0.0	7.32085	7.4877	-3.99676	15.32666	30.10804	1.45906	0.68537	106.4185	107.37705	39.86246	0.33482	 	250588.6334	 	2.62581E-5	 	41909.298	37.7916	 
1070.0	1.0	0.0	7.32284	7.48566	-4.02294	15.3088	30.04956	1.45648	0.68659	107.07065	107.90832	40.11257	0.33463	 	270031.1628	 	2.42771E-5	 	41720.557	37.7482	 
1065.0	1.0	0.0	7.32484	7.48362	-4.04907	15.29095	29.99109	1.45389	0.68781	107.72408	108.43963	40.36324	0.33443	 	291144.7232	 	2.24328E-5	 	41532.031	37.7052	 
1060.0	1.0	0.0	7.32683	7.48159	-4.07515	15.27309	29.93261	1.45128	0.68905	108.37875	108.97094	40.61444	0.33424	 	314086.4539	 	2.07165E-5	 	41343.716	37.663	 
1055.0	1.0	0.0	7.32882	7.47956	-4.10119	15.25523	29.87413	1.44867	0.69029	109.03462	109.50221	40.86617	0.33405	 	339029.5129	 	1.91204E-5	 	41155.608	37.6216	 
1050.0	1.0	0.0	7.33081	7.47753	-4.12718	15.23736	29.81565	1.44605	0.69154	109.69165	110.03342	41.1184	0.33385	 	366164.8341	 	1.76368E-5	 	40967.705	37.5806	 
1045.0	1.0	0.0	7.33279	7.47551	-4.15312	15.21949	29.75717	1.44341	0.6928	110.34982	110.56451	41.37114	0.33366	 	395703.0909	 	1.62586E-5	 	40780.004	37.5402	 
1040.0	1.0	0.0	7.33477	7.47349	-4.17901	15.20162	29.6987	1.44077	0.69407	111.00908	111.09547	41.62436	0.33346	 	427876.8918	 	1.4979E-5	 	40592.5	37.5008	 
1035.0	1.0	0.0	7.33675	7.47147	-4.20485	15.18375	29.64022	1.43812	0.69535	111.66939	111.62624	41.87805	0.33327	 	462943.2371	 	1.37917E-5	 	40405.19	37.462	 
1030.0	1.0	0.0	7.33873	7.46946	-4.23064	15.16587	29.58174	1.43545	0.69665	112.33073	112.1568	42.13219	0.33307	 	501186.2704	 	1.26906E-5	 	40218.072	37.4236	 
1025.0	1.0	0.0	7.3407	7.46745	-4.25639	15.14799	29.52326	1.43278	0.69795	112.99305	112.68711	42.38678	0.33288	 	542920.361	 	1.16701E-5	 	40031.14	37.3864	 
1020.0	1.0	0.0	7.34267	7.46545	-4.28209	15.1301	29.46478	1.43009	0.69926	113.65631	113.21713	42.64179	0.33269	 	588493.5617	 	1.07249E-5	 	39844.392	37.3496	 
1015.0	1.0	0.0	7.34464	7.46345	-4.30774	15.11222	29.40631	1.42739	0.70058	114.32049	113.74683	42.89723	0.33249	 	638291.4888	 	9.84995E-6	 	39657.823	37.3138	 
1010.0	1.0	0.0	7.3466	7.46145	-4.33334	15.09432	29.34783	1.42469	0.70191	114.98555	114.27617	43.15306	0.3323	 	692741.6802	 	9.04051E-6	 	39471.43	37.2786	 
1005.0	1.0	0.0	7.34857	7.45946	-4.35889	15.07643	29.28935	1.42197	0.70325	115.65144	114.80513	43.40929	0.3321	 	752318.4938	 	8.29214E-6	 	39285.208	37.2444	 
1000.0	1.0	0.0	7.35053	7.45747	-4.3844	15.05853	29.23087	1.41924	0.7046	116.31813	115.33365	43.66589	0.33191	 	817548.6175	 	7.60068E-6	 	39099.154	37.2108	 
995.0	1.0	0.0	7.35248	7.45548	-4.40986	15.04063	29.17239	1.4165	0.70597	116.98559	115.86172	43.92285	0.33172	 	889017.273	 	6.96221E-6	 	38913.263	37.1782	 
990.0	1.0	0.0	7.35444	7.4535	-4.43526	15.02273	29.11392	1.41375	0.70734	117.65378	116.38929	44.18016	0.33152	 	967375.2042	 	6.37304E-6	 	38727.531	37.1464	 
985.0	1.0	0.0	7.35639	7.45152	-4.46062	15.00482	29.05544	1.41099	0.70872	118.32266	116.91633	44.43781	0.33133	 	1053346.558	 	5.82972E-6	 	38541.953	37.1156	 
980.0	1.0	0.0	7.35834	7.44955	-4.48594	14.98691	28.99696	1.40821	0.71012	118.99219	117.44281	44.69578	0.33113	 	1147737.778	 	5.32902E-6	 	38356.524	37.0858	 
975.0	1.0	0.0	7.36029	7.44758	-4.5112	14.969	28.93848	1.40543	0.71153	119.66235	117.96869	44.95406	0.33094	 	1251447.647	 	4.86789E-6	 	38171.241	37.0566	 
970.0	1.0	0.0	7.36223	7.44561	-4.53642	14.95108	28.88001	1.40263	0.71295	120.33309	118.49394	45.21263	0.33075	 	1365478.643	 	4.4435E-6	 	37986.098	37.0286	 
965.0	1.0	0.0	7.36417	7.44365	-4.56158	14.93317	28.82153	1.39983	0.71437	121.00438	119.01853	45.47148	0.33055	 	1490949.779	 	4.05319E-6	 	37801.09	37.0016	 
960.0	1.0	0.0	7.36611	7.44169	-4.5867	14.91524	28.76305	1.39701	0.71582	121.67618	119.54241	45.7306	0.33036	 	1629111.15	 	3.69447E-6	 	37616.212	36.9756	 
955.0	1.0	0.0	7.36805	7.43973	-4.61177	14.89732	28.70458	1.39418	0.71727	122.34845	120.06557	45.98997	0.33016	 	1781360.414	 	3.36501E-6	 	37431.459	36.9506	 
950.0	1.0	0.0	7.36998	7.43778	-4.63679	14.87939	28.6461	1.39134	0.71873	123.02117	120.58796	46.24959	0.32997	 	1949261.479	 	3.06264E-6	 	37246.825	36.9268	 
945.0	1.0	0.0	7.37191	7.43583	-4.66176	14.86146	28.58763	1.38848	0.72021	123.69428	121.10956	46.50943	0.32978	 	2134565.73	 	2.78534E-6	 	37062.305	36.904	 
940.0	1.0	0.0	7.37384	7.43389	-4.68669	14.84352	28.52915	1.38562	0.7217	124.36777	121.63033	46.76949	0.32958	 	2339236.136	 	2.5312E-6	 	36877.893	36.8824	 
935.0	1.0	0.0	7.37576	7.43195	-4.71156	14.82558	28.47068	1.38274	0.7232	125.04158	122.15023	47.02974	0.32939	 	2565474.672	 	2.29848E-6	 	36693.583	36.862	 
930.0	1.0	0.0	7.37769	7.43001	-4.73639	14.80764	28.41221	1.37985	0.72472	125.71568	122.66924	47.29019	0.32919	 	2815753.534	 	2.08551E-6	 	36509.369	36.8428	 
925.0	1.0	0.0	7.37961	7.42808	-4.76117	14.7897	28.35373	1.37695	0.72624	126.39005	123.18733	47.5508	0.329	 	3092850.695	 	1.89077E-6	 	36325.245	36.8248	 
920.0	1.0	0.0	7.38152	7.42615	-4.7859	14.77175	28.29526	1.37404	0.72778	127.06464	123.70445	47.81158	0.32881	 	3399890.467	 	1.71284E-6	 	36141.204	36.8082	 
915.0	1.0	0.0	7.38344	7.42423	-4.81058	14.7538	28.23679	1.37111	0.72933	127.73941	124.22059	48.0725	0.32861	 	3740389.785	 	1.55039E-6	 	35957.239	36.793	 
910.0	1.0	0.0	7.38535	7.42231	-4.83522	14.73584	28.17832	1.36818	0.7309	128.41433	124.7357	48.33355	0.32842	 	4118311.108	 	1.40219E-6	 	35773.345	36.7788	 
905.0	1.0	0.0	7.38726	7.42039	-4.8598	14.71788	28.11985	1.36523	0.73248	129.08936	125.24976	48.59472	0.32822	 	4538122.9	 	1.2671E-6	 	35589.512	36.7666	 
900.0	1.0	0.0	7.38916	7.41847	-4.88434	14.69992	28.06139	1.36227	0.73407	129.76448	125.76274	48.856	0.32803	 	5004868.886	 	1.14406E-6	 	35405.735	36.7554	 
895.0	1.0	0.0	7.39106	7.41656	-4.90882	14.68196	28.00292	1.35929	0.73568	130.43963	126.2746	49.11737	0.32784	 	5524247.402	 	1.03208E-6	 	35222.006	36.7458	 
