T (C)	Fraction solid (wt)-TOTAL	Fraction liquid (wt)-LIQUID	Density (g/(cm)^3)-TOTAL	Molar volume (cm^3)-TOTAL	Volume change (%)-  	Average expansion coeff. (10e-6 1/K)-  	Thermal conductivity (W/(m*K))-TOTAL	Electrical resistivity (10e-6 Ohm*m)-TOTAL	Electrical conductivity (10e6 1/(Ohm*m))-TOTAL	Young's modulus (GPa)-TOTAL	Bulk modulus (GPa)-TOTAL	Shear modulus(GPa)-TOTAL	Poisson's ratio-TOTAL	Liquid viscosity (mPa s)-  	Total viscosity (mPa s)-  	Liquid diffusivity (10e-9 (m^2)/s)-  	Total diffusivity (10e-9 (m^2)/s)-  	Surface Tension (mN/m)-  	Enthalpy (J/mole)-TOTAL	Specific heat (J/(mole K))-TOTAL	Latent heat (J/mole)-TOTAL
1500.0	0.84865	0.15135	7.10955	7.71642	0.0	17.05809	34.94626	1.65334	0.60484	33.78639	79.61281	12.28834	0.37473	7.33229	1063.04178	1.1803	0.00814108	1733.77139	59555.139	 	0.0
1495.0	0.8742	0.1258	7.11593	7.70964	-0.0878267	16.90192	34.99696	1.64629	0.60743	38.36341	79.1291	13.99374	0.37073	7.36876	1246.86383	1.17115	0.00692129	1727.79765	59130.362	84.9554	202.733
1490.0	0.89472	0.10528	7.12164	7.7036	-0.1661	16.76807	35.02585	1.64028	0.60965	42.42702	78.81098	15.51286	0.36748	7.40605	1426.31947	1.16196	0.00603336	1721.92883	58748.91	76.2904	362.699
1485.0	0.91139	0.0886079	7.12686	7.69814	-0.23693	16.65158	35.03827	1.63505	0.6116	46.02755	78.62124	16.86247	0.36479	7.44414	1602.1151	1.15273	0.0053561	1716.17412	58400.357	69.7106	490.319
1480.0	0.9251	0.0749025	7.1317	7.69308	-0.30245	16.54737	35.03794	1.63042	0.61334	49.22316	78.53181	18.06298	0.36254	7.48271	1775.29887	1.14353	0.00481986	1710.5419	58077.261	64.6192	593.034
1475.0	0.93649	0.0635052	7.13624	7.68838	-0.36338	16.45378	35.02781	1.62624	0.61492	52.07128	78.52224	19.13491	0.36064	7.5223	1947.14464	1.13427	0.00438195	1705.02761	57773.986	60.655	676.477
1470.0	0.94607	0.0539282	7.14054	7.68393	-0.42107	16.36759	35.00991	1.62241	0.61637	54.62506	78.57639	20.09755	0.359	7.56225	2118.90338	1.12505	0.00401523	1699.6339	57486.374	57.5224	744.803
1465.0	0.95419	0.0458067	7.14465	7.6797	-0.47585	16.28805	34.98589	1.61887	0.61771	56.92755	78.68281	20.96661	0.35758	7.6032	2291.7174	1.11578	0.0037018	1694.35193	57211.334	55.008	801.098
1460.0	0.96114	0.0388643	7.14861	7.67564	-0.52853	16.21319	34.95689	1.61555	0.61898	59.01706	78.83206	21.75616	0.35633	7.64444	2466.65568	1.10657	0.00342937	1689.18205	56946.504	52.966	847.721
1455.0	0.96711	0.0328874	7.15243	7.67172	-0.57927	16.14269	34.92387	1.61241	0.62019	60.92441	79.01726	22.47757	0.35523	7.68659	2644.71016	1.09732	0.00318926	1684.11513	56690.059	51.289	886.497
1450.0	0.97229	0.027707	7.15614	7.66794	-0.62832	16.07593	34.88757	1.60942	0.62134	62.67608	79.23289	23.14064	0.35424	7.72968	2826.82656	1.08805	0.00297516	1679.1438	56440.568	49.8982	918.854
1445.0	0.97681	0.02319	7.15975	7.66425	-0.67605	16.01202	34.84851	1.60655	0.62245	64.29418	79.47436	23.75359	0.35336	7.77332	3013.87008	1.0788	0.00278242	1674.26661	56196.898	48.734	945.923
1440.0	0.98077	0.0192295	7.16329	7.66066	-0.72256	15.95077	34.80719	1.60378	0.62353	65.79755	79.73811	24.32342	0.35256	7.81786	3206.70519	1.06953	0.00260749	1669.4744	55958.146	47.7504	968.605
1435.0	0.98425	0.0157467	7.16675	7.65715	-0.76805	15.89168	34.76393	1.60109	0.62458	67.20039	80.02132	24.85544	0.35182	7.86294	3406.07666	1.0603	0.0024477	1664.76642	55723.619	46.9054	987.59
1430.0	0.98734	0.0126643	7.17014	7.65372	-0.81261	15.83455	34.71904	1.59846	0.6256	68.51728	80.32146	25.3551	0.35115	7.9089	3612.85478	1.05105	0.00230085	1660.13518	55492.679	46.188	1003.513
1425.0	0.99007	0.00993402	7.17347	7.65034	-0.85631	15.77919	34.67275	1.5959	0.62661	69.75714	80.63673	25.82573	0.35054	7.95537	3827.71748	1.04184	0.00216532	1655.57828	55264.896	45.5566	1016.8
1420.0	0.9925	0.00749818	7.17675	7.64703	-0.89927	15.72535	34.62529	1.59338	0.6276	70.93268	80.9652	26.27211	0.34996	8.00305	4051.63198	1.03259	0.00203963	1651.0875	55039.804	45.0184	1027.916
1415.0	0.99468	0.00531764	7.17998	7.64376	-0.94158	15.67279	34.57681	1.5909	0.62857	72.05147	81.30551	26.69708	0.34943	8.05128	4285.3799	1.02337	0.00192269	1646.66325	54817.071	44.5466	1037.19
1410.0	0.99664	0.00335835	7.18318	7.64054	-0.98329	15.6214	34.52746	1.58846	0.62954	73.12108	81.65645	27.10349	0.34892	8.10037	4529.83322	1.01416	0.00181354	1642.3003	54596.421	44.13	1044.894
1405.0	0.99841	0.00159351	7.18633	7.63737	-1.02446	15.57106	34.47735	1.58604	0.6305	74.14715	82.01698	27.49346	0.34845	8.15031	4785.83477	1.00495	0.00171143	1637.99445	54377.621	43.76	1051.259
1400.0	1.0	0.0	7.18945	7.63423	-1.06512	15.52167	34.42658	1.58365	0.63145	75.13459	82.38628	27.86884	0.348	 	5054.25898	 	0.00161571	 	54160.473	43.4296	1056.479
1395.0	1.0	0.0	7.19151	7.63204	-1.09353	15.50397	34.37045	1.58149	0.63231	75.61372	82.80552	28.05061	0.34781	 	5305.256	 	0.00153467	 	53907.995	50.4956	 
1390.0	1.0	0.0	7.19357	7.62985	-1.12189	15.48628	34.31432	1.57933	0.63318	76.09627	83.22742	28.23371	0.34761	 	5570.3407	 	0.00145726	 	53701.573	41.2844	 
1385.0	1.0	0.0	7.19563	7.62767	-1.1502	15.46858	34.25819	1.57717	0.63405	76.5822	83.65194	28.41811	0.34742	 	5850.3908	 	0.00138333	 	53495.539	41.2068	 
1380.0	1.0	0.0	7.19769	7.62548	-1.17847	15.45088	34.20205	1.57499	0.63492	77.07149	84.07904	28.60381	0.34722	 	6146.34395	 	0.00131275	 	53289.864	41.135	 
1375.0	1.0	0.0	7.19975	7.62331	-1.20669	15.43317	34.14592	1.57281	0.63581	77.56409	84.50866	28.79079	0.34703	 	6459.20218	 	0.00124539	 	53084.542	41.0644	 
1370.0	1.0	0.0	7.2018	7.62113	-1.23485	15.41546	34.08978	1.57062	0.63669	78.05997	84.94076	28.97905	0.34683	 	6790.0367	 	0.00118111	 	52879.571	40.9942	 
1365.0	1.0	0.0	7.20385	7.61896	-1.26297	15.39776	34.03364	1.56842	0.63758	78.5591	85.37529	29.16857	0.34664	 	7139.99306	 	0.00111981	 	52674.95	40.9242	 
1360.0	1.0	0.0	7.2059	7.6168	-1.29105	15.38004	33.9775	1.56622	0.63848	79.06145	85.81221	29.35933	0.34644	 	7510.29678	 	0.00106134	 	52470.678	40.8544	 
1355.0	1.0	0.0	7.20795	7.61463	-1.31907	15.36233	33.92136	1.56401	0.63938	79.56697	86.25146	29.55133	0.34625	 	7902.25939	 	0.00100561	 	52266.753	40.785	 
1350.0	1.0	0.0	7.20999	7.61248	-1.34704	15.34461	33.86522	1.56179	0.64029	80.07563	86.693	29.74456	0.34606	 	8317.28499	 	9.52497E-4	 	52063.175	40.7156	 
1345.0	1.0	0.0	7.21203	7.61032	-1.37497	15.32689	33.80908	1.55956	0.6412	80.58741	87.1368	29.93899	0.34586	 	8756.87731	 	9.01895E-4	 	51859.941	40.6468	 
1340.0	1.0	0.0	7.21407	7.60817	-1.40285	15.30917	33.75293	1.55733	0.64212	81.10226	87.58279	30.13463	0.34567	 	9222.64742	 	8.53701E-4	 	51657.05	40.5782	 
1335.0	1.0	0.0	7.21611	7.60602	-1.43067	15.29145	33.69679	1.55509	0.64305	81.62016	88.03094	30.33145	0.34547	 	9716.32199	 	8.07814E-4	 	51454.502	40.5096	 
1330.0	1.0	0.0	7.21814	7.60388	-1.45846	15.27372	33.64064	1.55284	0.64398	82.14106	88.4812	30.52945	0.34528	 	10239.75233	 	7.64137E-4	 	51252.294	40.4416	 
1325.0	1.0	0.0	7.22017	7.60174	-1.48619	15.25599	33.58449	1.55059	0.64492	82.66493	88.93352	30.72861	0.34508	 	10794.92411	 	7.22578E-4	 	51050.426	40.3736	 
1320.0	1.0	0.0	7.2222	7.5996	-1.51387	15.23826	33.52834	1.54833	0.64586	83.19174	89.38787	30.92891	0.34489	 	11383.96794	 	6.83046E-4	 	50848.895	40.3062	 
1315.0	1.0	0.0	7.22423	7.59747	-1.54151	15.22052	33.47219	1.54606	0.64681	83.72146	89.84419	31.13036	0.34469	 	12009.17085	 	6.45454E-4	 	50647.701	40.2388	 
1310.0	1.0	0.0	7.22626	7.59534	-1.56909	15.20279	33.41604	1.54378	0.64776	84.25404	90.30245	31.33293	0.3445	 	12672.98872	 	6.09719E-4	 	50446.842	40.1718	 
1305.0	1.0	0.0	7.22828	7.59322	-1.59663	15.18505	33.35989	1.54149	0.64872	84.78946	90.76259	31.53662	0.3443	 	13378.0598	 	5.7576E-4	 	50246.317	40.105	 
1300.0	1.0	0.0	7.2303	7.5911	-1.62412	15.16731	33.30373	1.5392	0.64969	85.32768	91.22458	31.74141	0.34411	 	14127.21937	 	5.43501E-4	 	50046.124	40.0386	 
1295.0	1.0	0.0	7.23231	7.58898	-1.65156	15.14956	33.24758	1.5369	0.65066	85.86867	91.68837	31.94728	0.34391	 	14923.51567	 	5.12865E-4	 	49846.261	39.9726	 
1290.0	1.0	0.0	7.23433	7.58686	-1.67895	15.13181	33.19142	1.53459	0.65164	86.41239	92.15391	32.15423	0.34372	 	15770.22727	 	4.83782E-4	 	49646.728	39.9066	 
1285.0	1.0	0.0	7.23634	7.58475	-1.70629	15.11406	33.13526	1.53227	0.65262	86.95881	92.62117	32.36225	0.34352	 	16670.88188	 	4.56181E-4	 	49447.523	39.841	 
1280.0	1.0	0.0	7.23835	7.58265	-1.73359	15.09631	33.0791	1.52995	0.65362	87.5079	93.09011	32.57132	0.34333	 	17629.27683	 	4.29997E-4	 	49248.643	39.776	 
1275.0	1.0	0.0	7.24036	7.58055	-1.76083	15.07856	33.02294	1.52762	0.65461	88.05961	93.56067	32.78142	0.34313	 	18649.50147	 	4.05166E-4	 	49050.089	39.7108	 
1270.0	1.0	0.0	7.24236	7.57845	-1.78803	15.0608	32.96678	1.52528	0.65562	88.61392	94.03282	32.99256	0.34294	 	19735.96137	 	3.81625E-4	 	48851.858	39.6462	 
1265.0	1.0	0.0	7.24437	7.57635	-1.81518	15.04304	32.91061	1.52293	0.65663	89.17079	94.50651	33.20471	0.34274	 	20893.40488	 	3.59316E-4	 	48653.948	39.582	 
1260.0	1.0	0.0	7.24637	7.57426	-1.84228	15.02528	32.85445	1.52058	0.65765	89.73018	94.9817	33.41786	0.34255	 	22126.95194	 	3.38181E-4	 	48456.358	39.518	 
1255.0	1.0	0.0	7.24836	7.57217	-1.86933	15.00751	32.79828	1.51821	0.65867	90.29207	95.45836	33.632	0.34235	 	23442.12556	 	3.18167E-4	 	48259.087	39.4542	 
1250.0	1.0	0.0	7.25036	7.57009	-1.89633	14.98975	32.74211	1.51584	0.6597	90.85642	95.93643	33.84712	0.34216	 	24844.88619	 	2.99221E-4	 	48062.133	39.3908	 
1245.0	1.0	0.0	7.25235	7.56801	-1.92329	14.97198	32.68594	1.51346	0.66074	91.42319	96.41589	34.06321	0.34196	 	26341.66915	 	2.81292E-4	 	47865.493	39.328	 
1240.0	1.0	0.0	7.25434	7.56593	-1.95019	14.95421	32.62977	1.51107	0.66178	91.99235	96.89668	34.28025	0.34177	 	27939.42558	 	2.64333E-4	 	47669.168	39.265	 
1235.0	1.0	0.0	7.25633	7.56386	-1.97705	14.93643	32.5736	1.50868	0.66283	92.56386	97.37876	34.49823	0.34157	 	29645.66716	 	2.48296E-4	 	47473.155	39.2026	 
1230.0	1.0	0.0	7.25832	7.56179	-2.00386	14.91865	32.51743	1.50627	0.66389	93.1377	97.8621	34.71714	0.34138	 	31468.51502	 	2.33138E-4	 	47277.452	39.1406	 
1225.0	1.0	0.0	7.2603	7.55973	-2.03061	14.90087	32.46125	1.50386	0.66495	93.71383	98.34665	34.93696	0.34118	 	33416.75313	 	2.18815E-4	 	47082.059	39.0786	 
1220.0	1.0	0.0	7.26228	7.55767	-2.05732	14.88309	32.40507	1.50144	0.66603	94.2922	98.83238	35.15769	0.34099	 	35499.88687	 	2.05288E-4	 	46886.972	39.0174	 
1215.0	1.0	0.0	7.26426	7.55561	-2.08399	14.86531	32.3489	1.49901	0.66711	94.8728	99.31924	35.37931	0.34079	 	37728.20706	 	1.92516E-4	 	46692.19	38.9564	 
1210.0	1.0	0.0	7.26623	7.55356	-2.1106	14.84752	32.29272	1.49657	0.66819	95.45558	99.8072	35.60181	0.3406	 	40112.86007	 	1.80463E-4	 	46497.712	38.8956	 
1205.0	1.0	0.0	7.2682	7.55151	-2.13716	14.82973	32.23654	1.49413	0.66929	96.04051	100.29621	35.82518	0.34041	 	42665.92475	 	1.69092E-4	 	46303.535	38.8354	 
1200.0	1.0	0.0	7.27017	7.54946	-2.16368	14.81194	32.18036	1.49167	0.67039	96.62756	100.78624	36.0494	0.34021	 	45400.49666	 	1.5837E-4	 	46109.658	38.7754	 
1195.0	1.0	0.0	7.27214	7.54742	-2.19014	14.79414	32.12417	1.48921	0.6715	97.21669	101.27724	36.27446	0.34002	 	48330.7806	 	1.48263E-4	 	45916.079	38.7158	 
1190.0	1.0	0.0	7.2741	7.54538	-2.21656	14.77634	32.06799	1.48674	0.67261	97.80787	101.76917	36.50036	0.33982	 	51472.19206	 	1.3874E-4	 	45722.795	38.6568	 
1185.0	1.0	0.0	7.27607	7.54335	-2.24293	14.75854	32.0118	1.48426	0.67374	98.40106	102.26201	36.72707	0.33963	 	54841.46871	 	1.29772E-4	 	45529.806	38.5978	 
1180.0	1.0	0.0	7.27803	7.54131	-2.26925	14.74074	31.95562	1.48177	0.67487	98.99623	102.7557	36.95458	0.33943	 	58456.79287	 	1.21328E-4	 	45337.108	38.5396	 
1175.0	1.0	0.0	7.27998	7.53929	-2.29552	14.72294	31.89943	1.47927	0.67601	99.59334	103.25021	37.18289	0.33924	 	62337.92613	 	1.13383E-4	 	45144.7	38.4816	 
1170.0	1.0	0.0	7.28194	7.53726	-2.32174	14.70513	31.84324	1.47677	0.67715	100.19237	103.74551	37.41197	0.33904	 	66506.35751	 	1.0591E-4	 	44952.581	38.4238	 
1165.0	1.0	0.0	7.28389	7.53524	-2.34792	14.68732	31.78705	1.47425	0.67831	100.79327	104.24154	37.64183	0.33885	 	70985.46642	 	9.8883E-5	 	44760.747	38.3668	 
1160.0	1.0	0.0	7.28584	7.53323	-2.37404	14.66951	31.73086	1.47173	0.67947	101.39602	104.73829	37.87244	0.33865	 	75800.7022	 	9.22795E-5	 	44569.197	38.31	 
1155.0	1.0	0.0	7.28778	7.53122	-2.40012	14.65169	31.67466	1.4692	0.68064	102.00057	105.2357	38.10379	0.33846	 	80979.78191	 	8.60764E-5	 	44377.928	38.2538	 
1150.0	1.0	0.0	7.28973	7.52921	-2.42614	14.63387	31.61847	1.46665	0.68182	102.6069	105.73374	38.33588	0.33826	 	86552.9084	 	8.0252E-5	 	44186.939	38.1978	 
1145.0	1.0	0.0	7.29167	7.5272	-2.45212	14.61605	31.56227	1.4641	0.68301	103.21497	106.23237	38.56868	0.33807	 	92553.01081	 	7.47857E-5	 	43996.227	38.1424	 
1140.0	1.0	0.0	7.29361	7.5252	-2.47805	14.59823	31.50607	1.46154	0.68421	103.82475	106.73156	38.80218	0.33787	 	99016.01013	 	6.96578E-5	 	43805.791	38.0872	 
1135.0	1.0	0.0	7.29554	7.52321	-2.50393	14.5804	31.44987	1.45897	0.68541	104.4362	107.23127	39.03638	0.33768	 	105981.1124	 	6.48496E-5	 	43615.627	38.0328	 
1130.0	1.0	0.0	7.29748	7.52121	-2.52976	14.56258	31.39367	1.4564	0.68663	105.04928	107.73146	39.27126	0.33748	 	113491.1326	 	6.03433E-5	 	43425.733	37.9788	 
1125.0	1.0	0.0	7.29941	7.51922	-2.55554	14.54475	31.33747	1.45381	0.68785	105.66397	108.2321	39.50681	0.33729	 	121592.8533	 	5.61219E-5	 	43236.108	37.925	 
1120.0	1.0	0.0	7.30134	7.51724	-2.58127	14.52691	31.28127	1.45121	0.68908	106.28023	108.73315	39.74302	0.33709	 	130337.4206	 	5.21694E-5	 	43046.748	37.872	 
1115.0	1.0	0.0	7.30326	7.51526	-2.60696	14.50908	31.22506	1.44861	0.69032	106.89803	109.23456	39.97987	0.3369	 	139780.7832	 	4.84703E-5	 	42857.652	37.8192	 
1110.0	1.0	0.0	7.30518	7.51328	-2.63259	14.49124	31.16886	1.44599	0.69157	107.51733	109.73632	40.21734	0.3367	 	149984.1784	 	4.50102E-5	 	42668.816	37.7672	 
1105.0	1.0	0.0	7.3071	7.5113	-2.65818	14.4734	31.11265	1.44337	0.69282	108.1381	110.23837	40.45544	0.33651	 	161014.6713	 	4.17751E-5	 	42480.239	37.7154	 
1100.0	1.0	0.0	7.30902	7.50933	-2.68371	14.45556	31.05644	1.44073	0.69409	108.7603	110.74069	40.69414	0.33631	 	172945.7517	 	3.87521E-5	 	42291.918	37.6642	 
1095.0	1.0	0.0	7.31094	7.50737	-2.7092	14.43771	31.00023	1.43809	0.69537	109.3839	111.24324	40.93344	0.33612	 	185857.9982	 	3.59285E-5	 	42103.85	37.6136	 
1090.0	1.0	0.0	7.31285	7.5054	-2.73464	14.41986	30.94402	1.43544	0.69665	110.00886	111.74598	41.17332	0.33592	 	199839.8142	 	3.32926E-5	 	41916.032	37.5636	 
1085.0	1.0	0.0	7.31476	7.50344	-2.76003	14.40201	30.88781	1.43278	0.69795	110.63516	112.24888	41.41376	0.33573	 	214988.2467	 	3.08333E-5	 	41728.463	37.5138	 
1080.0	1.0	0.0	7.31667	7.50149	-2.78537	14.38416	30.83159	1.4301	0.69925	111.26276	112.75191	41.65477	0.33553	 	231409.8967	 	2.85398E-5	 	41541.138	37.465	 
1075.0	1.0	0.0	7.31857	7.49954	-2.81066	14.36631	30.77538	1.42742	0.70056	111.89162	113.25502	41.89631	0.33534	 	249221.9319	 	2.64021E-5	 	41354.055	37.4166	 
1070.0	1.0	0.0	7.32047	7.49759	-2.83591	14.34845	30.71916	1.42473	0.70189	112.52171	113.75819	42.13839	0.33514	 	268553.2145	 	2.44107E-5	 	41167.211	37.3688	 
1065.0	1.0	0.0	7.32237	7.49565	-2.8611	14.33059	30.66294	1.42203	0.70322	113.15299	114.26138	42.38098	0.33495	 	289545.5581	 	2.25566E-5	 	40980.604	37.3214	 
1060.0	1.0	0.0	7.32427	7.4937	-2.88624	14.31272	30.60672	1.41932	0.70456	113.78544	114.76455	42.62408	0.33476	 	312355.1288	 	2.08313E-5	 	40794.229	37.275	 
1055.0	1.0	0.0	7.32616	7.49177	-2.91134	14.29486	30.5505	1.4166	0.70592	114.41901	115.26768	42.86768	0.33456	 	337154.0088	 	1.92267E-5	 	40608.085	37.2288	 
1050.0	1.0	0.0	7.32805	7.48984	-2.93639	14.27699	30.49428	1.41387	0.70728	115.05368	115.77072	43.11175	0.33437	 	364131.9419	 	1.77352E-5	 	40422.168	37.1834	 
1045.0	1.0	0.0	7.32994	7.48791	-2.96138	14.25912	30.43806	1.41113	0.70865	115.68941	116.27364	43.3563	0.33417	 	393498.2842	 	1.63497E-5	 	40236.475	37.1386	 
1040.0	1.0	0.0	7.33182	7.48598	-2.98633	14.24125	30.38183	1.40837	0.71004	116.32617	116.77642	43.6013	0.33398	 	425484.185	 	1.50632E-5	 	40051.002	37.0946	 
1035.0	1.0	0.0	7.3337	7.48406	-3.01123	14.22337	30.32561	1.40561	0.71143	116.96392	117.27901	43.84674	0.33378	 	460345.0274	 	1.38695E-5	 	39865.746	37.0512	 
1030.0	1.0	0.0	7.33558	7.48214	-3.03608	14.20549	30.26938	1.40284	0.71284	117.60262	117.78139	44.09262	0.33359	 	498363.1608	 	1.27625E-5	 	39680.704	37.0084	 
1025.0	1.0	0.0	7.33746	7.48023	-3.06088	14.18761	30.21315	1.40006	0.71426	118.24225	118.28351	44.33891	0.33339	 	539850.9633	 	1.17365E-5	 	39495.873	36.9662	 
1020.0	1.0	0.0	7.33933	7.47832	-3.08563	14.16973	30.15692	1.39727	0.71568	118.88277	118.78535	44.58561	0.3332	 	585154.2759	 	1.07861E-5	 	39311.248	36.925	 
1015.0	1.0	0.0	7.3412	7.47641	-3.11033	14.15184	30.10069	1.39447	0.71712	119.52415	119.28688	44.8327	0.333	 	634656.2561	 	9.90637E-6	 	39126.827	36.8842	 
1010.0	1.0	0.0	7.34307	7.47451	-3.13499	14.13395	30.04445	1.39165	0.71857	120.16635	119.78806	45.08018	0.33281	 	688781.7067	 	9.09248E-6	 	38942.605	36.8444	 
1005.0	1.0	0.0	7.34494	7.47261	-3.15959	14.11606	29.98822	1.38883	0.72003	120.80935	120.28885	45.32802	0.33261	 	748001.9412	 	8.34E-6	 	38758.579	36.8052	 
1000.0	1.0	0.0	7.3468	7.47072	-3.18414	14.09817	29.93198	1.386	0.7215	121.45309	120.78924	45.57622	0.33242	 	812840.2558	 	7.64471E-6	 	38574.744	36.767	 
995.0	1.0	0.0	7.34866	7.46883	-3.20865	14.08027	29.87574	1.38315	0.72299	122.09756	121.28917	45.82476	0.33222	 	883878.0909	 	7.00269E-6	 	38391.097	36.7294	 
990.0	1.0	0.0	7.35052	7.46694	-3.2331	14.06238	29.8195	1.3803	0.72448	122.74272	121.78864	46.07364	0.33203	 	961761.9717	 	6.41024E-6	 	38207.634	36.6926	 
985.0	1.0	0.0	7.35237	7.46506	-3.25751	14.04447	29.76326	1.37743	0.72599	123.38853	122.28759	46.32283	0.33183	 	1047211.335	 	5.86388E-6	 	38024.35	36.6568	 
980.0	1.0	0.0	7.35423	7.46318	-3.28187	14.02657	29.70702	1.37455	0.72751	124.03496	122.786	46.57232	0.33164	 	1141027.359	 	5.36036E-6	 	37841.242	36.6216	 
975.0	1.0	0.0	7.35607	7.4613	-3.30618	14.00867	29.65078	1.37167	0.72904	124.68197	123.28384	46.82211	0.33144	 	1244102.943	 	4.89663E-6	 	37658.304	36.5876	 
970.0	1.0	0.0	7.35792	7.45943	-3.33044	13.99076	29.59453	1.36877	0.73058	125.32954	123.78107	47.07219	0.33125	 	1357433.974	 	4.46984E-6	 	37475.533	36.5542	 
965.0	1.0	0.0	7.35976	7.45756	-3.35465	13.97285	29.53829	1.36586	0.73214	125.97763	124.27768	47.32253	0.33105	 	1482132.088	 	4.0773E-6	 	37292.923	36.522	 
960.0	1.0	0.0	7.3616	7.4557	-3.37881	13.95493	29.48204	1.36294	0.73371	126.62621	124.77361	47.57312	0.33086	 	1619439.108	 	3.71653E-6	 	37110.471	36.4904	 
955.0	1.0	0.0	7.36344	7.45384	-3.40292	13.93702	29.42579	1.36001	0.73529	127.27523	125.26885	47.82396	0.33066	 	1770743.41	 	3.38519E-6	 	36928.17	36.4602	 
950.0	1.0	0.0	7.36528	7.45198	-3.42698	13.9191	29.36954	1.35706	0.73688	127.92468	125.76336	48.07503	0.33047	 	1937598.483	 	3.08108E-6	 	36746.016	36.4308	 
945.0	1.0	0.0	7.36711	7.45013	-3.45099	13.90118	29.31329	1.35411	0.73849	128.57451	126.25712	48.32632	0.33027	 	2121744.0	 	2.80217E-6	 	36564.004	36.4024	 
940.0	1.0	0.0	7.36894	7.44828	-3.47495	13.88325	29.25704	1.35114	0.74011	129.22469	126.75008	48.57781	0.33008	 	2325129.76	 	2.54656E-6	 	36382.128	36.3752	 
935.0	1.0	0.0	7.37076	7.44643	-3.49887	13.86533	29.20078	1.34817	0.74175	129.87518	127.24223	48.82949	0.32988	 	2549942.909	 	2.31248E-6	 	36200.384	36.3488	 
930.0	1.0	0.0	7.37259	7.44459	-3.52273	13.8474	29.14453	1.34518	0.74339	130.52596	127.73353	49.08136	0.32969	 	2798638.937	 	2.09826E-6	 	36018.764	36.324	 
925.0	1.0	0.0	7.37441	7.44275	-3.54655	13.82947	29.08827	1.34218	0.74506	131.177	128.22395	49.33339	0.32949	 	3073976.978	 	1.90238E-6	 	35837.265	36.2998	 
920.0	1.0	0.0	7.37622	7.44092	-3.57031	13.81153	29.03201	1.33917	0.74673	131.82824	128.71347	49.58558	0.3293	 	3379060.078	 	1.7234E-6	 	35655.879	36.2772	 
915.0	1.0	0.0	7.37804	7.43909	-3.59403	13.7936	28.97575	1.33615	0.74842	132.47967	129.20204	49.83792	0.32911	 	3717381.151	 	1.55999E-6	 	35474.601	36.2556	 
