T (C)	Fraction solid (wt)-TOTAL	Fraction liquid (wt)-LIQUID	Density (g/(cm)^3)-TOTAL	Molar volume (cm^3)-TOTAL	Volume change (%)-  	Average expansion coeff. (10e-6 1/K)-  	Thermal conductivity (W/(m*K))-TOTAL	Electrical resistivity (10e-6 Ohm*m)-TOTAL	Electrical conductivity (10e6 1/(Ohm*m))-TOTAL	Young's modulus (GPa)-TOTAL	Bulk modulus (GPa)-TOTAL	Shear modulus(GPa)-TOTAL	Poisson's ratio-TOTAL	Liquid viscosity (mPa s)-  	Total viscosity (mPa s)-  	Liquid diffusivity (10e-9 (m^2)/s)-  	Total diffusivity (10e-9 (m^2)/s)-  	Surface Tension (mN/m)-  	Enthalpy (J/mole)-TOTAL	Specific heat (J/(mole K))-TOTAL	Latent heat (J/mole)-TOTAL
700.0	0.0	1.0	1.61767	15.18769	0.0	52.40631	79.77188	0.29888	3.34583	0.0	25.56539	0.0	0.5	1.25005	1.25005	3.79962	3.79962	547.00891	27384.632	 	0.0
695.0	0.0	1.0	1.61896	15.17564	-0.0793021	52.36099	79.43371	0.29861	3.34885	0.0	25.63328	0.0	0.5	1.26476	1.26476	3.73613	3.73613	548.74655	27214.08	34.1104	0.0
690.0	0.0	1.0	1.62024	15.16365	-0.15829	52.31676	79.09555	0.29834	3.35191	0.0	25.70116	0.0	0.5	1.2798	1.2798	3.67315	3.67315	550.48421	27043.53	34.11	0.0
686.6	0.0	1.0	1.62111	15.15551	-0.21185	52.28728	78.86543	0.29815	3.354	0.0	25.74735	0.0	0.5	1.29023	1.29023	3.63059	3.63059	551.66668	26927.473	34.1097	0.0
685.0	0.0	1.0	1.62151	15.15168	-0.23705	52.27307	78.75733	0.29806	3.35499	0.0	25.76892	0.0	0.5	1.29517	1.29517	3.61071	3.61071	552.2198	26872.89	34.1669	0.086
680.0	1.0E-5	0.99999	1.62279	15.13985	-0.31496	52.23357	78.41974	0.29778	3.35813	4.1327E-20	25.83694	1.37757E-20	0.5	1.31089	1.31089	3.5488	3.5488	553.9511	26702.074	34.1632	0.355
675.0	2.0E-5	0.99998	1.62406	15.12793	-0.39346	52.19004	78.08138	0.29751	3.36128	3.30775E-19	25.90466	1.10259E-19	0.5	1.32697	1.32697	3.48742	3.48742	555.68268	26531.284	34.158	0.6
670.0	2.0E-5	0.99998	1.62533	15.11607	-0.47156	52.1482	77.74307	0.29722	3.36446	1.16544E-18	25.97243	3.88481E-19	0.49999	1.34342	1.34342	3.42655	3.42655	557.41449	26360.518	34.1532	0.822
665.0	3.0E-5	0.99997	1.6266	15.1044	-0.54837	52.11307	77.4055	0.29694	3.3677	2.81066E-18	26.04039	9.36888E-19	0.5	1.36025	1.36025	3.36621	3.36621	559.14649	26189.774	34.1488	1.024
663.68	3.0E-5	0.99997	1.62693	15.10131	-0.56876	52.10286	77.31638	0.29686	3.36855	3.40385E-18	26.05828	1.13462E-18	0.5	1.36475	1.36475	3.3504	3.3504	559.60291	26144.787	 	1.074
660.0	3.7E-4	0.99963	1.62789	15.09237	-0.62762	52.06328	77.07268	0.29663	3.37119	3.74315E-14	26.10699	1.24775E-14	0.49996	1.37706	1.37706	3.3074	3.3074	560.85683	26011.02	35.7508	9.237
655.0	8.3E-4	0.99917	1.62919	15.08046	-0.70605	52.01746	76.74237	0.29631	3.37482	1.0708E-12	26.17348	3.56954E-13	0.49991	1.39413	1.39413	3.2494	3.2494	562.56018	25829.805	36.243	19.922
650.0	0.00126	0.99874	1.63048	15.06845	-0.78507	51.96744	76.41098	0.29599	3.37845	6.11261E-12	26.23984	2.03772E-12	0.49986	1.41162	1.41162	3.19183	3.19183	564.26452	25649.054	36.1502	30.159
645.0	0.00167	0.99833	1.63177	15.05654	-0.86355	51.91983	76.07936	0.29567	3.38211	1.96662E-11	26.30639	6.55618E-12	0.49982	1.42956	1.42956	3.13471	3.13471	565.9662	25469.067	35.9974	39.964
640.0	0.00207	0.99793	1.63305	15.04466	-0.94172	51.87329	75.74738	0.29535	3.38579	4.70001E-11	26.373	1.56691E-11	0.49977	1.44795	1.44795	3.07804	3.07804	567.67261	25290.172	35.779	49.35
635.0	0.00245	0.99755	1.63433	15.03301	-1.01847	51.83457	75.41587	0.29503	3.38953	9.35818E-11	26.43998	3.11994E-11	0.49974	1.46681	1.46681	3.02182	3.02182	569.37985	25112.346	35.5652	58.331
630.87	0.00275	0.99725	1.63538	15.02319	-1.08309	51.79486	75.14056	0.29476	3.39259	1.50385E-10	26.49503	5.01385E-11	0.4997	1.48277	1.48277	2.97571	2.97571	570.7915	24966.172	 	65.456
630.0	0.00323	0.99677	1.6356	15.02116	-1.09649	51.78748	75.08288	0.2947	3.39324	1.69446E-10	26.50726	5.6496E-11	0.49963	1.48591	1.48591	2.96656	2.96656	571.07711	24924.883	37.4926	77.604
625.0	0.00589	0.99411	1.63688	15.00949	-1.1733	51.74701	74.75125	0.29437	3.39706	2.11293E-9	26.61604	7.04666E-10	0.49924	1.50436	1.50436	2.91397	2.91397	572.72588	24689.602	47.0562	145.34
620.0	0.00842	0.99158	1.63814	14.99796	-1.24924	51.71126	74.41972	0.29404	3.40093	1.97846E-8	26.73184	6.59981E-9	0.49887	1.52335	1.52335	2.86162	2.86162	574.37952	24458.688	46.1828	209.344
616.81	0.00995	0.99005	1.63895	14.99052	-1.29823	51.68451	74.20757	0.29383	3.40338	5.1294E-8	26.80451	1.71135E-8	0.49864	1.53575	1.53575	2.82839	2.82839	575.43587	24313.714	 	248.27
615.0	0.11107	0.88893	1.64519	14.93361	-1.67293	49.50179	78.62358	0.27676	3.61327	0.0024143	26.86034	8.14545E-4	0.48199	1.54284	2.22325	2.80964	1.94978	576.29812	23352.583	221.221	1149.166
610.0	0.31751	0.68249	1.65828	14.81581	-2.44857	45.03623	88.43991	0.24465	4.08741	0.22456	27.22588	0.0775642	0.44755	1.56298	36.21133	2.75784	0.11904	578.67736	21361.612	398.194	2974.47
607.3	0.39524	0.60476	1.6634	14.7702	-2.74886	43.34351	92.70645	0.23268	4.29772	0.57106	27.39014	0.19906	0.4344	1.57414	88.63604	2.72992	0.0484821	579.96434	20589.956	 	3656.972
607.3	0.39524	0.60476	1.6634	14.7702	-2.74887	43.34347	92.70644	0.23268	4.29772	0.57106	27.39014	0.19906	0.4344	1.57414	88.63604	2.72992	0.0484821	579.96434	20589.949	 	3656.98
605.0	0.44985	0.55015	1.66707	14.73769	-2.9629	42.15486	95.95028	0.22423	4.45976	0.99254	27.51845	0.34824	0.42509	1.58381	154.07975	2.70616	0.027817	581.0626	20037.117	264.899	4133.904
600.0	0.54368	0.45632	1.67358	14.68036	-3.34041	40.1007	101.61611	0.21052	4.75015	2.23542	27.77086	0.79329	0.40896	1.60528	359.99363	2.65476	0.0118381	583.45183	19060.897	195.244	4945.663
595.0	0.61229	0.38771	1.67858	14.63656	-3.62876	38.58727	106.3584	0.19998	5.00047	3.73028	27.99564	1.3351	0.397	1.62736	637.91764	2.60374	0.00664228	585.84544	18310.525	150.074	5532.163
590.0	0.66436	0.33564	1.68258	14.60172	-3.85816	37.43172	110.12567	0.19203	5.20758	5.31189	28.20147	1.91375	0.38782	1.65004	976.20504	2.55316	0.00431551	588.24186	17707.701	120.565	5971.696
585.0	0.70503	0.29497	1.68589	14.573	-4.04727	36.52085	113.11959	0.18586	5.38033	6.88144	28.39357	2.49228	0.38055	1.67333	1369.17369	2.50304	0.00305908	590.63998	17206.021	100.336	6310.656
580.0	0.73754	0.26246	1.6887	14.54865	-4.2076	35.7847	115.5031	0.18097	5.52589	8.38634	28.5752	3.05033	0.37466	1.69724	1815.80556	2.45341	0.0022932	593.03897	16776.374	85.9294	6578.147
578.08	0.74827	0.25173	1.68968	14.54028	-4.26271	35.5418	116.28668	0.17934	5.57595	8.93763	28.64279	3.2555	0.3727	1.7066	2001.39169	2.43445	0.00207587	593.96218	16626.689	 	6665.59
570.0	0.78628	0.21372	1.69333	14.50877	-4.47017	34.66497	118.92587	0.1737	5.75712	11.13894	28.91613	4.07827	0.36565	1.74696	2887.16579	2.35563	0.00142534	597.83656	16061.191	71.5183	6970.672
565.0	0.80472	0.19528	1.69528	14.49204	-4.58037	34.23349	120.14358	0.17092	5.85077	12.36515	29.07769	4.53885	0.36215	1.77283	3521.37191	2.3075	0.00116171	600.23514	15755.271	61.184	7116.075
560.0	0.82041	0.17959	1.69705	14.47678	-4.6808	33.86132	121.11721	0.16853	5.93358	13.50117	29.2346	4.96689	0.35912	1.79939	4234.08932	2.25988	9.60395E-4	602.63318	15473.471	56.36	7237.886
555.0	0.8339	0.1661	1.69869	14.46271	-4.77343	33.53635	121.89443	0.16645	6.00771	14.55472	29.38755	5.36495	0.35646	1.82668	5037.09168	2.21276	8.02446E-4	605.03057	15210.925	52.5092	7340.964
550.0	0.84561	0.15439	1.70022	14.44961	-4.8597	33.24989	122.50984	0.16462	6.07471	15.53249	29.53694	5.73529	0.35412	1.85472	5943.51848	2.16614	6.75962E-4	607.42724	14963.974	49.3902	7428.959
545.0	0.85585	0.14415	1.70167	14.4373	-4.94075	32.99486	122.99266	0.16297	6.13593	16.4424	29.68322	6.08069	0.35202	1.88355	6969.42937	2.12004	5.72958E-4	609.82317	14729.815	46.8318	7504.664
540.0	0.86488	0.13512	1.70303	14.42566	-5.01742	32.76632	123.3657	0.16149	6.19238	17.2915	29.8266	6.40366	0.35013	1.91319	8133.33587	2.07443	4.87965E-4	612.21836	14506.272	44.7086	7570.246
539.56	0.86561	0.13439	1.70314	14.42466	-5.02399	32.74701	123.39425	0.16136	6.19714	17.36247	29.83896	6.43068	0.34997	1.91582	8241.95701	2.07048	4.81276E-4	612.42751	14487.238	 	7575.511
539.56	0.86561	0.13439	1.70314	14.42466	-5.024	32.74698	123.39424	0.16136	6.19714	17.36247	29.83896	6.43069	0.34997	1.91582	8241.95701	2.07048	4.81276E-4	612.42752	14487.24	 	7575.509
535.0	0.87298	0.12702	1.70434	14.41452	-5.09078	32.55716	123.65408	0.16012	6.24526	18.0926	29.96726	6.70894	0.34839	1.94353	9459.99844	2.02949	4.16953E-4	614.60984	14290.612	43.132	7628.44
530.0	0.88021	0.11979	1.70559	14.40385	-5.16103	32.3666	123.86313	0.15886	6.29476	18.84493	30.10554	6.99613	0.34681	1.97477	10972.05334	1.98503	3.57269E-4	617.00143	14082.692	41.584	7679.376
525.0	0.88669	0.11331	1.70679	14.39361	-5.22845	32.1931	124.00447	0.15769	6.34142	19.55121	30.24159	7.26618	0.34536	2.00697	12697.29721	1.94102	3.06803E-4	619.39324	13881.49	40.2404	7724.07
520.0	0.89252	0.10748	1.70795	14.38372	-5.29354	32.03345	124.08877	0.1566	6.38574	20.21731	30.3755	7.52125	0.34401	2.04014	14670.41883	1.8975	2.63876E-4	621.78516	13686.019	39.0942	7763.497
515.0	0.89781	0.10219	1.70908	14.37414	-5.35665	31.88545	124.12382	0.15557	6.42806	20.84663	30.50741	7.76258	0.34276	2.07433	16930.70338	1.85446	2.27206E-4	624.17712	13495.487	38.1064	7798.447
510.0	0.90261	0.0973851	1.71018	14.36484	-5.41787	31.74876	124.11652	0.15459	6.46872	21.44345	30.63746	7.99175	0.3416	2.10958	19525.23993	1.81191	1.95765E-4	626.56896	13309.241	37.2492	7829.572
505.0	0.90701	0.0929933	1.71125	14.35576	-5.47766	31.62022	124.07409	0.15366	6.50806	22.012	30.76559	8.21036	0.3405	2.14591	22509.82034	1.76986	1.68724E-4	628.9609	13126.744	36.4994	7857.363
500.0	0.91104	0.0889608	1.7123	14.34688	-5.53611	31.49935	123.99956	0.15276	6.54622	22.55411	30.89192	8.41906	0.33947	2.18338	25947.86736	1.72831	1.45428E-4	631.3529	12947.547	35.8394	7882.322
495.0	0.91475	0.085245	1.71333	14.3382	-5.59325	31.38618	123.89684	0.1519	6.58337	23.0726	31.01659	8.61891	0.33849	2.22202	29915.65812	1.68727	1.25324E-4	633.74489	12771.275	35.2544	7904.797
490.0	0.91819	0.0818093	1.71434	14.32968	-5.64934	31.27893	123.77058	0.15106	6.61975	23.56978	31.13957	8.81077	0.33756	2.26189	34502.99627	1.64674	1.07954E-4	636.1371	12597.608	34.7334	7925.115
485.0	0.92138	0.0786222	1.71533	14.32131	-5.70446	31.17709	123.62189	0.15025	6.6554	24.04769	31.26095	8.9954	0.33667	2.30303	39815.65897	1.60673	9.29368E-5	638.52958	12426.275	34.2666	7943.493
480.0	0.92434	0.0756563	1.71631	14.31307	-5.75873	31.07993	123.45456	0.14947	6.69052	24.50805	31.38074	9.17344	0.33582	2.3455	45979.33532	1.56723	7.99476E-5	640.92247	12257.045	33.846	7960.228
475.0	0.92711	0.0728871	1.71727	14.30495	-5.81219	30.98725	123.26977	0.1487	6.72515	24.95244	31.49898	9.3455	0.335	2.38935	53142.97159	1.52825	6.87115E-5	643.31584	12089.716	33.4658	7975.49
470.0	0.92971	0.0702943	1.71823	14.29694	-5.86492	30.89857	123.06946	0.14794	6.75939	25.38212	31.61574	9.51203	0.33421	2.43464	61483.42391	1.4898	5.89936E-5	645.70982	11924.115	33.1202	7989.445
465.0	0.93214	0.0678607	1.71917	14.28905	-5.91691	30.81404	122.85537	0.1472	6.79334	25.7985	31.73106	9.67358	0.33345	2.48143	71212.41864	1.45187	5.05913E-5	648.10445	11760.091	32.8048	8002.248
460.0	0.93443	0.0655699	1.7201	14.28124	-5.96833	30.73239	122.62888	0.14648	6.82706	26.20266	31.84489	9.83055	0.33272	2.52979	82581.70374	1.41447	4.33307E-5	650.50005	11597.513	32.5156	8014.01
455.0	0.93659	0.0634086	1.72102	14.27351	-6.01923	30.65321	122.39068	0.14576	6.86059	26.59568	31.95727	9.98334	0.332	2.57978	95893.09686	1.37761	3.70613E-5	652.89678	11436.263	32.25	8024.837
450.0	0.93864	0.0613638	1.72193	14.26586	-6.06956	30.57728	122.14167	0.14505	6.89397	26.97838	32.06828	10.13227	0.33131	2.63148	111508.4016	1.34127	3.16525E-5	655.29459	11276.242	32.0042	8034.852
445.0	0.94057	0.059425	1.72284	14.25829	-6.11941	30.50363	121.88275	0.14436	6.92725	27.35155	32.17793	10.27763	0.33064	2.68495	129862.0777	1.30547	2.6991E-5	657.6938	11117.357	31.777	8044.125
444.58	0.94073	0.0592674	1.72291	14.25765	-6.12361	30.4975	121.85988	0.1443	6.93004	27.38261	32.18718	10.28974	0.33058	2.68956	131556.2219	1.30246	2.66278E-5	657.89691	11103.965	 	8044.873
435.0	0.9442	0.0557956	1.72463	14.24333	-6.2179	30.36193	121.33025	0.143	6.99323	28.07633	32.39326	10.56034	0.32933	2.79757	177013.385	1.23547	1.95257E-5	662.49619	10802.537	31.482	8060.875
434.09	0.94451	0.0554884	1.72479	14.24199	-6.22674	30.34967	121.28032	0.14287	6.99933	28.14006	32.41256	10.58523	0.32921	2.80819	182125.1729	1.22921	1.89533E-5	662.9331	10774.137	 	8062.258
430.0	0.99259	0.00740828	1.72841	14.21066	-6.433	28.77852	122.13945	0.14105	7.08993	34.16806	32.5731	12.929	0.32137	2.90476	249773.7201	1.18147	1.374E-5	663.66015	10344.03	91.7014	8370.914
425.0	1.0	0.0	1.7295	14.2003	-6.50126	28.50904	122.03368	0.14016	7.13452	35.32905	32.6862	13.38366	0.31986	 	299426.4426	 	1.13801E-5	 	10150.206	38.7648	8416.653
420.0	1.0	0.0	1.73031	14.19367	-6.54487	28.46287	121.75026	0.13948	7.1693	35.50816	32.78797	13.4551	0.31951	 	349528.6964	 	9.67901E-6	 	9960.603	37.9206	 
415.0	1.0	0.0	1.73111	14.18707	-6.58835	28.4167	121.46678	0.1388	7.20457	35.68635	32.8885	13.52622	0.31915	 	408932.8026	 	8.2133E-6	 	9814.924	29.1358	 
410.0	1.0	0.0	1.73192	14.18049	-6.63171	28.37053	121.18325	0.13811	7.24036	35.8636	32.98779	13.59702	0.3188	 	479533.47	 	6.95319E-6	 	9669.526	29.0796	 
405.0	1.0	0.0	1.73272	14.17392	-6.67494	28.32436	120.89967	0.13743	7.27668	36.03992	33.08586	13.66751	0.31845	 	563645.2317	 	5.87228E-6	 	9524.41	29.0232	 
400.0	1.0	0.0	1.73352	14.16737	-6.71804	28.27819	120.61604	0.13673	7.31353	36.21531	33.18271	13.73768	0.3181	 	664102.9562	 	4.94724E-6	 	9379.575	28.967	 
395.0	1.0	0.0	1.73432	14.16084	-6.76102	28.23203	120.33235	0.13604	7.35093	36.38977	33.27836	13.80753	0.31775	 	784388.2173	 	4.15747E-6	 	9235.018	28.9114	 
390.0	1.0	0.0	1.73512	14.15434	-6.80388	28.18587	120.04861	0.13534	7.38889	36.5633	33.3728	13.87707	0.3174	 	928788.6391	 	3.48483E-6	 	9090.738	28.856	 
385.0	1.0	0.0	1.73591	14.14785	-6.84661	28.1397	119.76482	0.13464	7.42743	36.7359	33.46605	13.94629	0.31705	 	1102599.42	 	2.91336E-6	 	8946.736	28.8004	 
380.0	1.0	0.0	1.73671	14.14138	-6.88921	28.09354	119.48097	0.13393	7.46655	36.90757	33.5581	14.0152	0.3167	 	1312378.976	 	2.42907E-6	 	8803.008	28.7456	 
375.0	1.0	0.0	1.7375	14.13492	-6.93169	28.04738	119.19706	0.13322	7.50627	37.07832	33.64898	14.08379	0.31635	 	1566274.243	 	2.01974E-6	 	8659.553	28.691	 
370.0	1.0	0.0	1.73829	14.12849	-6.97405	28.00123	118.91311	0.13251	7.5466	37.24813	33.73869	14.15206	0.316	 	1874435.943	 	1.67467E-6	 	8516.372	28.6362	 
365.0	1.0	0.0	1.73908	14.12208	-7.01627	27.95507	118.62909	0.13179	7.58756	37.41702	33.82723	14.22001	0.31565	 	2249550.399	 	1.38457E-6	 	8373.461	28.5822	 
360.0	1.0	0.0	1.73987	14.11568	-7.05838	27.90891	118.34502	0.13108	7.62917	37.58498	33.91461	14.28765	0.3153	 	2707522.89	 	1.14136E-6	 	8230.822	28.5278	 
355.0	1.0	0.0	1.74065	14.10931	-7.10035	27.86276	118.06089	0.13035	7.67143	37.75201	34.00084	14.35497	0.31495	 	3268358.684	 	9.38038E-7	 	8088.451	28.4742	 
350.0	1.0	0.0	1.74144	14.10295	-7.14221	27.81661	117.7767	0.12963	7.71437	37.91811	34.08593	14.42197	0.3146	 	3957302.883	 	7.68564E-7	 	7946.349	28.4204	 
345.0	1.0	0.0	1.74222	14.09661	-7.18393	27.77046	117.49246	0.1289	7.758	38.08329	34.16988	14.48866	0.31425	 	4806320.338	 	6.27723E-7	 	7804.515	28.3668	 
340.0	1.0	0.0	1.743	14.0903	-7.22554	27.72431	117.20816	0.12817	7.80234	38.24755	34.25269	14.55502	0.3139	 	5856024.049	 	5.11035E-7	 	7662.946	28.3138	 
335.0	1.0	0.0	1.74378	14.084	-7.26701	27.67816	116.9238	0.12743	7.84741	38.41087	34.33439	14.62107	0.31355	 	7158197.295	 	4.14662E-7	 	7521.644	28.2604	 
330.0	1.0	0.0	1.74456	14.07772	-7.30836	27.63202	116.63938	0.12669	7.89321	38.57328	34.41496	14.6868	0.3132	 	8779104.805	 	3.35322E-7	 	7380.605	28.2078	 
325.0	1.0	0.0	1.74533	14.07146	-7.34959	27.58587	116.3549	0.12595	7.93978	38.73475	34.49443	14.75221	0.31285	 	1.080385671E7	 	2.7022E-7	 	7239.831	28.1548	 
320.0	1.0	0.0	1.74611	14.06521	-7.39069	27.53973	116.07037	0.1252	7.98713	38.8953	34.57279	14.81731	0.3125	 	1.334218283E7	 	2.16982E-7	 	7099.319	28.1024	 
315.0	1.0	0.0	1.74688	14.05899	-7.43167	27.49359	115.78577	0.12445	8.03528	39.05493	34.65005	14.88208	0.31215	 	1.653610431E7	 	1.73597E-7	 	6959.069	28.05	 
310.0	1.0	0.0	1.74765	14.05279	-7.47252	27.44745	115.50111	0.1237	8.08425	39.21363	34.72622	14.94654	0.3118	 	2.057016823E7	 	1.38366E-7	 	6819.081	27.9976	 
305.0	1.0	0.0	1.74842	14.0466	-7.51324	27.40131	115.21639	0.12294	8.13407	39.37141	34.80131	15.01068	0.31145	 	2.568516009E7	 	1.09861E-7	 	6679.353	27.9456	 
300.0	1.0	0.0	1.74919	14.04043	-7.55384	27.35517	114.93161	0.12218	8.18474	39.52827	34.87532	15.0745	0.3111	 	3.219655601E7	 	8.68852E-8	 	6539.885	27.8936	 
295.0	1.0	0.0	1.74996	14.03429	-7.59432	27.30903	114.64677	0.12141	8.23631	39.6842	34.94825	15.138	0.31075	 	4.051946431E7	 	6.84362E-8	 	6400.676	27.8418	 
290.0	1.0	0.0	1.75072	14.02816	-7.63467	27.2629	114.36187	0.12064	8.28879	39.83921	35.02012	15.20118	0.3104	 	5.120249332E7	 	5.36809E-8	 	6261.726	27.79	 
285.0	1.0	0.0	1.75148	14.02205	-7.67489	27.21677	114.07691	0.11987	8.3422	39.9933	35.09093	15.26404	0.31005	 	6.497395666E7	 	4.19274E-8	 	6123.034	27.7384	 
280.0	1.0	0.0	1.75225	14.01596	-7.71499	27.17063	113.79188	0.1191	8.39658	40.14646	35.16069	15.32659	0.3097	 	8.280521417E7	 	3.26041E-8	 	5984.599	27.687	 
275.0	1.0	0.0	1.753	14.00989	-7.75496	27.1245	113.50679	0.11832	8.45194	40.29871	35.2294	15.38881	0.30935	 	1.059979332E8	 	2.524E-8	 	5846.422	27.6354	 
270.0	1.0	0.0	1.75376	14.00384	-7.79481	27.07838	113.22164	0.11753	8.50832	40.45003	35.29707	15.45071	0.309	 	1.36304914E8	 	1.94489E-8	 	5708.501	27.5842	 
265.0	1.0	0.0	1.75452	13.9978	-7.83453	27.03225	112.93642	0.11674	8.56573	40.60042	35.3637	15.51229	0.30865	 	1.760982601E8	 	1.49154E-8	 	5570.836	27.533	 
260.0	1.0	0.0	1.75527	13.99179	-7.87413	26.98612	112.65114	0.11595	8.62423	40.7499	35.42931	15.57356	0.3083	 	2.286046979E8	 	1.13828E-8	 	5433.427	27.4818	 
255.0	1.0	0.0	1.75602	13.98579	-7.9136	26.94	112.3658	0.11516	8.68382	40.89846	35.49389	15.6345	0.30796	 	2.982366624E8	 	8.64337E-9	 	5296.274	27.4306	 
250.0	1.0	0.0	1.75678	13.97982	-7.95295	26.89388	112.08039	0.11436	8.74455	41.04609	35.55745	15.69512	0.30761	 	3.910607499E8	 	6.52933E-9	 	5159.376	27.3796	 
245.0	1.0	0.0	1.75752	13.97386	-7.99217	26.84775	111.79492	0.11355	8.80644	41.19281	35.62	15.75542	0.30726	 	5.154643633E8	 	4.90618E-9	 	5022.734	27.3284	 
240.0	1.0	0.0	1.75827	13.96792	-8.03127	26.80164	111.50938	0.11275	8.86954	41.3386	35.68155	15.8154	0.30691	 	6.831100453E8	 	3.6664E-9	 	4886.347	27.2774	 
235.0	1.0	0.0	1.75902	13.962	-8.07024	26.75552	111.22378	0.11193	8.93387	41.48347	35.7421	15.87506	0.30656	 	9.103099939E8	 	2.72452E-9	 	4750.215	27.2264	 
230.0	1.0	0.0	1.75976	13.9561	-8.10909	26.7094	110.93811	0.11112	8.99948	41.62743	35.80165	15.9344	0.30621	 	1.220018198E9	 	2.01288E-9	 	4614.338	27.1754	 
225.0	1.0	0.0	1.7605	13.95022	-8.14781	26.66328	110.65238	0.1103	9.06639	41.77046	35.86021	15.99341	0.30586	 	1.644736357E9	 	1.47826E-9	 	4478.717	27.1242	 
220.0	1.0	0.0	1.76124	13.94436	-8.18641	26.61717	110.36658	0.10947	9.13466	41.91257	35.91779	16.05211	0.30552	 	2.230780894E9	 	1.07897E-9	 	4343.351	27.0732	 
215.0	1.0	0.0	1.76198	13.93852	-8.22488	26.57106	110.08072	0.10864	9.20432	42.05377	35.97439	16.11048	0.30517	 	3.044591384E9	 	7.82548E-10	 	4208.242	27.0218	 
210.0	1.0	0.0	1.76272	13.93269	-8.26323	26.52495	109.79479	0.10781	9.27542	42.19405	36.03002	16.16853	0.30482	 	4.18212267E9	 	5.63861E-10	 	4073.388	26.9708	 
205.0	1.0	0.0	1.76345	13.92689	-8.30145	26.47884	109.5088	0.10697	9.348	42.3334	36.08468	16.22626	0.30447	 	5.782929244E9	 	4.03555E-10	 	3938.792	26.9192	 
200.0	1.0	0.0	1.76418	13.9211	-8.33954	26.43273	109.22274	0.10613	9.42211	42.47184	36.13838	16.28367	0.30412	 	8.051443637E9	 	2.86822E-10	 	3804.452	26.868	 
195.0	1.0	0.0	1.76492	13.91534	-8.37751	26.38662	108.93662	0.10529	9.49779	42.60936	36.19112	16.34075	0.30378	 	1.12894E10	 	2.02396E-10	 	3670.371	26.8162	 
