T (C)	Fraction solid (wt)-TOTAL	Fraction liquid (wt)-LIQUID	Density (g/(cm)^3)-TOTAL	Molar volume (cm^3)-TOTAL	Volume change (%)-  	Average expansion coeff. (10e-6 1/K)-  	Thermal conductivity (W/(m*K))-TOTAL	Electrical resistivity (10e-6 Ohm*m)-TOTAL	Electrical conductivity (10e6 1/(Ohm*m))-TOTAL	Young's modulus (GPa)-TOTAL	Bulk modulus (GPa)-TOTAL	Shear modulus(GPa)-TOTAL	Poisson's ratio-TOTAL	Liquid viscosity (mPa s)-  	Total viscosity (mPa s)-  	Liquid diffusivity (10e-9 (m^2)/s)-  	Total diffusivity (10e-9 (m^2)/s)-  	Surface Tension (mN/m)-  	Enthalpy (J/mole)-TOTAL	Specific heat (J/(mole K))-TOTAL	Latent heat (J/mole)-TOTAL
700.0	0.0	1.0	1.61675	15.27258	0.0	52.73932	80.6088	0.29578	3.38093	0.0	24.85432	0.0	0.5	1.24098	1.24098	3.82738	3.82738	544.91591	27544.278	 	0.0
695.0	0.0	1.0	1.61803	15.26045	-0.0794162	52.69559	80.2659	0.29551	3.38394	0.0	24.92343	0.0	0.5	1.25552	1.25552	3.76362	3.76362	546.65231	27372.779	34.2998	0.0
690.0	0.0	1.0	1.61931	15.24837	-0.15851	52.65299	79.923	0.29525	3.38697	0.0	24.99255	0.0	0.5	1.27038	1.27038	3.70038	3.70038	548.38875	27201.269	34.302	0.0
685.0	0.0	1.0	1.62059	15.23634	-0.23729	52.61153	79.5801	0.29498	3.39004	0.0	25.06166	0.0	0.5	1.28558	1.28558	3.63765	3.63765	550.12524	27029.75	34.3038	0.0
680.0	0.0	1.0	1.62187	15.22436	-0.31574	52.57125	79.2372	0.29471	3.39314	0.0	25.13077	0.0	0.5	1.30112	1.30112	3.57544	3.57544	551.86178	26858.22	34.306	0.0
675.0	0.0	1.0	1.62314	15.21243	-0.39388	52.53216	78.8943	0.29444	3.39627	0.0	25.19989	0.0	0.5	1.31702	1.31702	3.51375	3.51375	553.59838	26686.68	34.308	0.0
670.0	0.0	1.0	1.62441	15.20054	-0.47169	52.4943	78.5514	0.29417	3.39944	0.0	25.269	0.0	0.5	1.33328	1.33328	3.45259	3.45259	555.33503	26515.131	34.3098	0.0
665.0	0.0	1.0	1.62568	15.18871	-0.54918	52.4577	78.2085	0.29389	3.40264	0.0	25.33811	0.0	0.5	1.34992	1.34992	3.39195	3.39195	557.07175	26343.571	34.312	0.0
660.0	0.0	1.0	1.62694	15.17692	-0.62635	52.42239	77.8656	0.29361	3.40587	0.0	25.40723	0.0	0.5	1.36695	1.36695	3.33184	3.33184	558.80852	26172.001	34.314	0.0
655.0	0.0	1.0	1.6282	15.16519	-0.70321	52.38839	77.5227	0.29333	3.40914	0.0	25.47634	0.0	0.5	1.38438	1.38438	3.27226	3.27226	560.54536	26000.428	34.3146	0.0
650.0	0.0	1.0	1.62945	15.1535	-0.77974	52.35574	77.1798	0.29305	3.41244	0.0	25.54545	0.0	0.5	1.40223	1.40223	3.21321	3.21321	562.28227	25828.856	34.3144	0.0
645.0	0.0	1.0	1.63071	15.14186	-0.85595	52.32447	76.8369	0.29276	3.41578	0.0	25.61457	0.0	0.5	1.4205	1.4205	3.1547	3.1547	564.01839	25657.605	34.2502	0.0
640.0	0.0	1.0	1.63196	15.13027	-0.93184	52.29462	76.494	0.29247	3.41916	0.0	25.68368	0.0	0.5	1.43922	1.43922	3.09672	3.09672	565.75548	25487.025	34.116	0.0
635.0	0.0	1.0	1.6332	15.11873	-1.00741	52.26622	76.1511	0.29218	3.42257	0.0	25.7528	0.0	0.5	1.45839	1.45839	3.03927	3.03927	567.49265	25317.105	33.984	0.0
630.0	0.0	1.0	1.63444	15.10723	-1.08265	52.2393	75.8082	0.29188	3.42602	0.0	25.82191	0.0	0.5	1.47804	1.47804	2.98236	2.98236	569.2299	25147.837	33.8536	0.0
629.1	0.0	1.0	1.63467	15.10518	-1.09611	52.23463	75.74672	0.29183	3.42665	0.0	25.8343	0.0	0.5	1.48161	1.48161	2.97222	2.97222	569.54139	25117.557	33.7777	0.0
625.92	2.1E-4	0.99979	1.63547	15.0977	-1.14509	52.21033	75.53204	0.29163	3.42902	5.92889E-15	25.87748	1.97633E-15	0.49998	1.49412	1.49412	2.93695	2.93695	570.63592	25005.107	 	5.213
625.0	0.0498301	0.95017	1.63867	15.06822	-1.33809	51.10397	77.80458	0.28282	3.53582	1.46739E-4	25.9186	4.91808E-5	0.49184	1.49837	1.61737	2.92561	2.71036	571.06591	24558.534	136.229	420.676
620.0	0.25987	0.74013	1.65251	14.94199	-2.16461	46.40856	88.16979	0.24818	4.0293	0.11449	26.14366	0.0392911	0.45697	1.52205	15.28596	2.86406	0.28518	573.3953	22641.184	383.47	2170.031
615.0	0.39778	0.60222	1.66199	14.85681	-2.72239	43.31402	96.28271	0.226	4.42482	0.64771	26.34548	0.22589	0.43368	1.54663	81.88953	2.80276	0.0529352	575.72752	21335.567	261.123	3308.274
610.0	0.49456	0.50544	1.66893	14.79496	-3.12732	41.13049	102.92529	0.21022	4.75687	1.58328	26.53275	0.55864	0.41709	1.57202	211.30002	2.74198	0.0203996	578.06011	20378.221	191.469	4098.858
605.0	0.56582	0.43418	1.67427	14.74759	-3.43751	39.51199	108.35278	0.19856	5.03623	2.76298	26.71005	0.98346	0.40472	1.59817	396.17627	2.68185	0.0108185	580.39178	19636.358	148.373	4674.563
600.0	0.62024	0.37976	1.67855	14.70981	-3.68487	38.26844	112.81255	0.18963	5.27354	4.05164	26.88021	1.45205	0.39515	1.62505	628.61595	2.62246	0.00677938	582.72187	19036.255	120.021	5109.101
595.0	0.663	0.337	1.68208	14.67867	-3.88873	37.28467	116.46013	0.18263	5.47541	5.36162	27.04489	1.93206	0.38754	1.65266	903.99252	2.56389	0.00468723	585.05002	18533.926	100.466	5446.45
590.0	0.69737	0.30263	1.68508	14.65231	-4.06133	36.48758	119.44944	0.17704	5.64848	6.64298	27.20513	2.40455	0.38134	1.68099	1220.96919	2.50616	0.00345039	587.37608	18101.615	86.4622	5714.359
585.0	0.72554	0.27446	1.68768	14.62947	-4.21089	35.82805	121.90652	0.17247	5.79826	7.86949	27.36168	2.85917	0.37619	1.71005	1580.73069	2.4493	0.00264967	589.7	17721.004	76.1222	5931.133
580.0	0.74898	0.25102	1.68997	14.60932	-4.34285	35.27362	123.93372	0.16866	5.92923	9.02952	27.51504	3.29103	0.37184	1.73984	1986.57446	2.39333	0.00209608	592.02175	17379.558	68.2892	6109.303
575.0	0.76876	0.23124	1.69203	14.59125	-4.46119	34.80051	125.61227	0.16543	6.04496	10.11983	27.66561	3.69848	0.3681	1.77039	2443.43167	2.33824	0.00169418	594.34139	17068.427	62.2262	6257.707
570.0	0.78566	0.21434	1.6939	14.57481	-4.56882	34.39117	127.00544	0.16265	6.14825	11.14118	27.81364	4.08142	0.36487	1.80171	2957.6353	2.28406	0.00139138	596.65897	16781.204	57.4446	6382.746
565.0	0.80023	0.19977	1.69562	14.55972	-4.66762	34.0346	128.16373	0.16022	6.24133	12.09682	27.95942	4.44076	0.36202	1.83382	3536.91729	2.23076	0.0011566	598.97453	16513.142	53.6124	6489.159
560.0	0.81292	0.18708	1.69722	14.5457	-4.7594	33.71979	129.12764	0.15808	6.32601	12.9913	28.10308	4.77796	0.3595	1.86674	4190.66071	2.17834	9.70348E-4	601.28815	16260.658	50.4968	6580.52
556.62	0.82059	0.17941	1.69824	14.53673	-4.81811	33.52687	129.68761	0.15676	6.37934	13.56357	28.19909	4.99412	0.35795	1.88948	4680.30177	2.14339	8.65305E-4	602.85222	16097.38	 	6635.1
555.0	0.82449	0.17551	1.69873	14.53242	-4.84636	33.43255	129.96739	0.15611	6.40559	13.86052	28.24703	5.1064	0.35717	1.90016	4940.33948	2.12719	8.18161E-4	603.60514	16015.575	49.0166	6664.999
550.0	0.83559	0.16441	1.70019	14.51959	-4.93037	33.16058	130.72005	0.15428	6.48182	14.73978	28.39338	5.43935	0.35492	1.93374	5813.55219	2.07763	6.91073E-4	605.93077	15771.385	48.838	6749.096
545.0	0.84535	0.15465	1.70157	14.5075	-5.00953	32.91781	131.33431	0.15262	6.55208	15.56063	28.53694	5.75084	0.3529	1.96821	6802.52887	2.02884	5.87015E-4	608.25437	15539.059	46.4652	6821.833
540.0	0.85399	0.14601	1.70287	14.49601	-5.08473	32.69872	131.83347	0.15112	6.61742	16.32965	28.67803	6.04323	0.35107	2.00361	7925.40588	1.98082	5.00767E-4	610.57603	15316.632	44.4854	6885.167
535.0	0.86169	0.13831	1.70412	14.48505	-5.15651	32.49999	132.23522	0.14973	6.67866	17.05163	28.81676	6.31822	0.3494	2.03995	9202.80139	1.93356	4.28606E-4	612.89578	15102.549	42.8166	6940.647
530.0	0.8686	0.1314	1.70531	14.47454	-5.22534	32.31894	132.55505	0.14845	6.73649	17.73206	28.95336	6.57782	0.34787	2.07729	10659.34528	1.88706	3.6775E-4	615.21369	14895.565	41.3968	6989.509
525.0	0.87482	0.12518	1.70646	14.4644	-5.2917	32.15246	132.8038	0.14724	6.79141	18.37398	29.08788	6.8231	0.34645	2.11566	12322.59396	1.84131	3.16132E-4	617.52984	14694.672	40.1786	7032.755
520.0	0.88044	0.11956	1.70758	14.45459	-5.35596	31.99831	132.99162	0.14612	6.84389	18.98183	29.22046	7.05571	0.34514	2.15509	14225.73688	1.79629	2.72124E-4	619.8443	14499.043	39.1258	7071.207
518.07	0.88247	0.11753	1.708	14.45088	-5.38027	31.94191	133.05138	0.14569	6.86369	19.20794	29.2712	7.14232	0.34466	2.17063	15033.71063	1.77908	2.56871E-4	620.73892	14424.696	 	7084.896
518.07	0.88247	0.11753	1.708	14.45088	-5.38027	31.94191	133.05137	0.14569	6.86369	19.20794	29.2712	7.14232	0.34466	2.17063	15033.71422	1.77908	2.56871E-4	620.73893	14424.696	 	7084.896
515.0	0.88559	0.11441	1.70867	14.44504	-5.41849	31.85404	133.13243	0.14504	6.8946	19.56082	29.35109	7.27759	0.34391	2.19558	16408.95137	1.75205	2.34431E-4	622.15669	14307.663	38.276	7105.87
510.0	0.89032	0.10968	1.70972	14.43575	-5.47932	31.71969	133.22672	0.14402	6.94353	20.11451	29.47996	7.49005	0.34275	2.23722	18918.52289	1.70853	2.02043E-4	624.46721	14120.125	37.5076	7137.147
505.0	0.89464	0.10536	1.71076	14.42667	-5.53877	31.59318	133.28009	0.14304	6.99094	20.64159	29.6071	7.69256	0.34166	2.28009	21804.12685	1.66571	1.74185E-4	626.77648	13936.291	36.7668	7165.169
500.0	0.89861	0.10139	1.71177	14.4178	-5.59683	31.47478	133.298	0.1421	7.0371	21.1454	29.73263	7.88637	0.34063	2.32422	25128.87323	1.62358	1.50168E-4	629.08439	13755.72	36.1142	7190.37
495.0	0.90227	0.0977299	1.71276	14.40912	-5.65366	31.36355	133.28525	0.1412	7.08223	21.62784	29.85657	8.07218	0.33965	2.36967	28965.98375	1.58214	1.29433E-4	631.39098	13578.041	35.5358	7213.115
490.0	0.90566	0.094337	1.71373	14.40059	-5.70953	31.25752	133.24464	0.14032	7.12646	22.09106	29.9789	8.2508	0.33872	2.41649	33401.91415	1.54139	1.11513E-4	633.69636	13402.943	35.0196	7233.71
485.0	0.9088	0.0911968	1.71469	14.39222	-5.76432	31.15785	133.18045	0.13947	7.17	22.53663	30.09976	8.4228	0.33784	2.46473	38539.32427	1.50132	9.60147E-5	636.00041	13230.16	34.5566	7252.412
480.0	0.91173	0.0882703	1.71563	14.38397	-5.81836	31.06201	133.09437	0.13864	7.21294	22.9663	30.21908	8.58884	0.33698	2.51446	44499.18103	1.46192	8.26069E-5	638.30334	13059.467	34.1386	7269.444
475.0	0.91446	0.085538	1.71656	14.37584	-5.87156	30.97098	132.98875	0.13783	7.25538	23.38123	30.33694	8.74936	0.33617	2.56574	51425.23425	1.42319	7.10067E-5	640.60503	12890.667	33.76	7284.995
470.0	0.91702	0.0829815	1.71748	14.36782	-5.92409	30.88349	132.8661	0.13703	7.29746	23.78274	30.45335	8.90485	0.33538	2.61863	59488.61347	1.38513	6.09718E-5	642.90564	12723.592	33.415	7299.228
465.0	0.91942	0.0805824	1.71839	14.35992	-5.97585	30.80042	132.72802	0.13625	7.33925	24.17181	30.56839	9.05568	0.33462	2.6732	68893.1011	1.34772	5.22944E-5	645.20504	12558.095	33.0994	7312.285
460.0	0.92167	0.0783274	1.71929	14.35209	-6.0271	30.71981	132.57544	0.13549	7.38081	24.54959	30.68199	9.20229	0.33389	2.72953	79881.67168	1.31097	4.47953E-5	647.50346	12394.047	32.8096	7324.288
455.0	0.9238	0.076201	1.72017	14.34435	-6.07779	30.64209	132.41065	0.13473	7.42226	24.9169	30.7942	9.34497	0.33317	2.7877	92745.60766	1.27486	3.8319E-5	649.80088	12231.336	32.5422	7335.346
450.0	0.92581	0.074193	1.72105	14.3367	-6.12787	30.56785	132.23405	0.13398	7.46361	25.27431	30.90509	9.48394	0.33248	2.84778	107833.1034	1.23939	3.27313E-5	652.09722	12069.861	32.295	7345.552
445.0	0.92771	0.0722931	1.72193	14.32911	-6.17756	30.49526	132.04654	0.13325	7.50491	25.62274	31.01463	9.61955	0.33181	2.90987	125562.9154	1.20456	2.79152E-5	654.39273	11909.536	32.065	7354.989
440.0	0.92951	0.0704921	1.72279	14.32161	-6.2267	30.42587	131.84918	0.13252	7.54624	25.9628	31.12287	9.75203	0.33115	2.97406	146440.5587	1.17036	2.37687E-5	656.68721	11750.282	31.8508	7363.73
435.0	0.93122	0.0687818	1.72365	14.31415	-6.27553	30.35752	131.64303	0.13179	7.58764	26.29508	31.22975	9.88161	0.33051	3.04045	171073.6116	1.13677	2.02036E-5	658.98101	11592.03	31.6504	7371.84
430.0	0.93285	0.0671539	1.7245	14.30677	-6.32386	30.29201	131.42884	0.13108	7.62916	26.62007	31.33537	10.00846	0.32988	3.10914	200199.6848	1.10381	1.71424E-5	661.27389	11434.716	31.4628	7379.377
425.0	0.9344	0.0656022	1.72535	14.29943	-6.37189	30.22765	131.20654	0.13036	7.6708	26.93819	31.4397	10.13275	0.32926	3.18023	234709.3816	1.07146	1.45179E-5	663.5661	11278.287	31.2858	7386.391
420.0	0.93588	0.0641218	1.72619	14.29217	-6.41946	30.16599	130.97746	0.12966	7.71264	27.24989	31.54279	10.25464	0.32866	3.25385	275689.5075	1.03972	1.22714E-5	665.85746	11122.69	31.1194	7392.928
415.0	0.93729	0.0627062	1.72703	14.28495	-6.46671	30.1058	130.7416	0.12895	7.75469	27.55569	31.64464	10.37433	0.32807	3.33012	324461.8111	1.00858	1.03516E-5	668.14818	10967.884	30.9612	7399.029
410.0	0.93865	0.0613505	1.72786	14.27778	-6.51368	30.04664	130.49956	0.12825	7.79699	27.85579	31.74521	10.49191	0.32749	3.40916	382637.9939	0.97804	8.71394E-6	670.43837	10813.827	30.8114	7404.731
409.13	0.93888	0.0611208	1.728	14.27653	-6.52187	30.0361	130.45705	0.12813	7.8044	27.90759	31.76258	10.51221	0.32739	3.42323	393875.7121	0.97278	8.45453E-6	670.83741	10787.065	 	7405.682
409.13	0.93888	0.0611208	1.728	14.27653	-6.52187	30.0361	130.45705	0.12813	7.8044	27.90759	31.76258	10.51221	0.32739	3.42323	393875.7121	0.97278	8.45453E-6	670.83741	10787.065	 	7405.682
405.0	0.93995	0.0600526	1.72868	14.27065	-6.56036	29.98885	130.25196	0.12756	7.83957	28.15059	31.84454	10.60751	0.32692	3.49112	452194.9297	0.94809	7.31959E-6	672.72805	10660.484	30.6686	7410.067
402.22	0.94065	0.0593549	1.72914	14.26672	-6.5861	29.9577	130.11201	0.12717	7.86333	28.31209	31.89916	10.67088	0.32661	3.53792	496587.7038	0.93171	6.63797E-6	673.99872	10575.665	 	7412.88
400.0	0.94575	0.054249	1.7297	14.26125	-6.6219	29.78326	130.12935	0.12674	7.89037	28.94182	31.95007	10.91602	0.32566	3.59328	545245.7324	0.91434	6.02568E-6	674.91373	10479.627	36.1714	7443.261
395.0	0.95502	0.0449836	1.73081	14.25014	-6.69463	29.46052	130.11968	0.1258	7.94882	30.1363	32.06066	11.38188	0.32387	3.72012	667778.4524	0.87661	4.88347E-6	676.97771	10277.914	40.3426	7497.65
390.0	0.96194	0.0380644	1.73179	14.24028	-6.75922	29.21125	130.04971	0.12493	8.00445	31.08751	32.16688	11.75376	0.32245	3.85044	812143.3318	0.8406	3.98534E-6	679.04994	10091.023	37.3782	7537.552
388.29	0.96388	0.0361186	1.7321	14.23712	-6.77988	29.13874	130.01401	0.12464	8.02292	31.36809	32.20231	11.86363	0.32203	3.89579	867368.0371	0.82867	3.72199E-6	679.75944	10029.789	 	7548.654
385.0	0.96906	0.0309446	1.73273	14.23051	-6.82315	28.96172	129.98426	0.12405	8.0612	32.08088	32.27464	12.14315	0.32095	3.9783	990234.4406	0.80745	3.24395E-6	681.12325	9902.886	37.6274	7579.032
380.0	0.97508	0.0249217	1.7336	14.22136	-6.88308	28.74688	129.89249	0.1232	8.11718	32.95879	32.38077	12.48809	0.31961	4.10654	1205057.308	0.77629	2.6454E-6	683.20185	9722.119	36.1534	7613.471
375.0	0.97954	0.0204626	1.73439	14.21296	-6.93808	28.57778	129.75484	0.12238	8.17113	33.65858	32.48319	12.76366	0.31853	4.23844	1461762.055	0.74637	2.16414E-6	685.28741	9551.425	34.1388	7638.16
370.0	0.98298	0.0170195	1.73513	14.20506	-6.9898	28.43887	129.59132	0.12159	8.22427	34.24036	32.58273	12.99325	0.31762	4.37416	1771272.208	0.71764	1.7722E-6	687.37856	9387.329	32.8192	7656.572
365.0	0.98574	0.0142617	1.73584	14.19751	-7.03925	28.32048	129.4078	0.12082	8.27697	34.74106	32.67994	13.19125	0.31682	4.51395	2146847.828	0.69001	1.4508E-6	689.47423	9227.767	31.9124	7670.767
361.57	0.98732	0.0126781	1.73631	14.19248	-7.07214	28.24852	129.27359	0.12029	8.31307	35.04796	32.74539	13.3128	0.31633	4.61231	2450853.935	0.67166	1.26401E-6	690.91399	9120.347	 	7678.656
361.57	0.98732	0.0126781	1.73631	14.19248	-7.07214	28.24852	129.27359	0.12029	8.31307	35.04796	32.74539	13.3128	0.31633	4.61231	2450853.935	0.67166	1.26401E-6	690.91399	9120.347	 	7678.656
360.0	0.99173	0.00826778	1.73655	14.18906	-7.09456	28.13411	129.31226	0.11996	8.33618	35.60029	32.78415	13.5304	0.31557	4.67519	2636419.839	0.66099	1.17214E-6	691.47654	9051.303	35.2928	7702.179
359.0	0.9938	0.00619874	1.73668	14.18713	-7.10718	28.07864	129.31822	0.11976	8.34971	35.86957	32.8071	13.63662	0.31519	4.71444	2755131.136	0.65445	1.11987E-6	691.83933	9011.543	 	7713.061
359.0	0.9938	0.00619874	1.73668	14.18713	-7.10718	28.07864	129.31822	0.11976	8.34971	35.86957	32.8071	13.63662	0.31519	4.71444	2755131.136	0.65445	1.11987E-6	691.83933	9011.543	 	7713.061
355.0	1.0	0.0	1.73715	14.18014	-7.15295	27.90758	129.29101	0.11903	8.40115	36.70912	32.89435	13.96841	0.314	 	3268358.684	 	9.38038E-7	 	8864.248	37.411	7744.492
350.0	1.0	0.0	1.73793	14.17375	-7.19482	27.86161	129.02069	0.11833	8.45086	36.87528	32.98067	14.03541	0.31365	 	3957302.883	 	7.68564E-7	 	8696.058	33.638	 
345.0	1.0	0.0	1.73871	14.16737	-7.23657	27.81564	128.75039	0.11763	8.50136	37.04052	33.06586	14.10209	0.3133	 	4806320.338	 	6.27723E-7	 	8553.864	28.4388	 
340.0	1.0	0.0	1.73949	14.16102	-7.27819	27.76967	128.48011	0.11692	8.5527	37.20485	33.14992	14.16845	0.31295	 	5856024.049	 	5.11035E-7	 	8411.885	28.3958	 
335.0	1.0	0.0	1.74027	14.15468	-7.31969	27.7237	128.20986	0.11621	8.60488	37.36826	33.23286	14.23451	0.31259	 	7158197.295	 	4.14662E-7	 	8270.132	28.3506	 
330.0	1.0	0.0	1.74105	14.14836	-7.36106	27.67773	127.93962	0.1155	8.65792	37.53075	33.31469	14.30025	0.31224	 	8779104.805	 	3.35322E-7	 	8128.64	28.2984	 
325.0	1.0	0.0	1.74182	14.14206	-7.40231	27.63176	127.66942	0.11479	8.71186	37.69232	33.39541	14.36567	0.31189	 	1.080385671E7	 	2.7022E-7	 	7987.412	28.2456	 
320.0	1.0	0.0	1.7426	14.13578	-7.44343	27.58579	127.39923	0.11407	8.7667	37.85298	33.47502	14.43078	0.31154	 	1.334218283E7	 	2.16982E-7	 	7846.449	28.1926	 
315.0	1.0	0.0	1.74337	14.12952	-7.48443	27.53983	127.12907	0.11335	8.82248	38.01273	33.55354	14.49558	0.31118	 	1.653610431E7	 	1.73597E-7	 	7705.75	28.1398	 
310.0	1.0	0.0	1.74414	14.12328	-7.52531	27.49386	126.85894	0.11262	8.87922	38.17155	33.63098	14.56006	0.31083	 	2.057016823E7	 	1.38366E-7	 	7565.314	28.0872	 
305.0	1.0	0.0	1.74491	14.11705	-7.56606	27.4479	126.58884	0.1119	8.93694	38.32947	33.70732	14.62422	0.31048	 	2.568516009E7	 	1.09861E-7	 	7425.141	28.0346	 
300.0	1.0	0.0	1.74568	14.11085	-7.60668	27.40194	126.31877	0.11116	8.99567	38.48646	33.7826	14.68807	0.31013	 	3.219655601E7	 	8.68852E-8	 	7285.229	27.9824	 
295.0	1.0	0.0	1.74644	14.10466	-7.64718	27.35598	126.04873	0.11043	9.05544	38.64254	33.8568	14.7516	0.30977	 	4.051946431E7	 	6.84362E-8	 	7145.577	27.9304	 
290.0	1.0	0.0	1.74721	14.0985	-7.68756	27.31002	125.77873	0.10969	9.11627	38.7977	33.92993	14.81482	0.30942	 	5.120249332E7	 	5.36809E-8	 	7006.185	27.8784	 
285.0	1.0	0.0	1.74797	14.09235	-7.72781	27.26406	125.50875	0.10895	9.17819	38.95195	34.00201	14.87772	0.30907	 	6.497395666E7	 	4.19274E-8	 	6867.053	27.8264	 
280.0	1.0	0.0	1.74873	14.08622	-7.76793	27.2181	125.23882	0.10821	9.24123	39.10528	34.07303	14.9403	0.30872	 	8.280521417E7	 	3.26041E-8	 	6728.178	27.775	 
275.0	1.0	0.0	1.74949	14.08011	-7.80794	27.17214	124.96892	0.10746	9.30543	39.2577	34.14301	15.00256	0.30837	 	1.059979332E8	 	2.524E-8	 	6589.561	27.7234	 
270.0	1.0	0.0	1.75024	14.07402	-7.84781	27.12618	124.69906	0.10671	9.37081	39.4092	34.21195	15.06451	0.30801	 	1.36304914E8	 	1.94489E-8	 	6451.201	27.672	 
265.0	1.0	0.0	1.751	14.06795	-7.88757	27.08023	124.42924	0.10596	9.43741	39.55978	34.27985	15.12614	0.30766	 	1.760982601E8	 	1.49154E-8	 	6313.097	27.6208	 
260.0	1.0	0.0	1.75175	14.0619	-7.92719	27.03428	124.15946	0.1052	9.50527	39.70945	34.34672	15.18746	0.30731	 	2.286046979E8	 	1.13828E-8	 	6175.249	27.5696	 
255.0	1.0	0.0	1.7525	14.05586	-7.9667	26.98832	123.88973	0.10445	9.57441	39.8582	34.41257	15.24845	0.30696	 	2.982366624E8	 	8.64337E-9	 	6037.656	27.5186	 
250.0	1.0	0.0	1.75326	14.04985	-8.00608	26.94237	123.62004	0.10368	9.64487	40.00604	34.4774	15.30913	0.30661	 	3.910607499E8	 	6.52933E-9	 	5900.317	27.4678	 
245.0	1.0	0.0	1.754	14.04385	-8.04533	26.89642	123.3504	0.10292	9.7167	40.15296	34.54121	15.36949	0.30626	 	5.154643633E8	 	4.90618E-9	 	5763.234	27.4166	 
240.0	1.0	0.0	1.75475	14.03788	-8.08446	26.85047	123.08081	0.10215	9.78994	40.29897	34.60402	15.42953	0.3059	 	6.831100453E8	 	3.6664E-9	 	5626.404	27.366	 
235.0	1.0	0.0	1.7555	14.03192	-8.12346	26.80452	122.81128	0.10137	9.86462	40.44406	34.66583	15.48925	0.30555	 	9.103099939E8	 	2.72452E-9	 	5489.828	27.3152	 
230.0	1.0	0.0	1.75624	14.02598	-8.16234	26.75857	122.5418	0.1006	9.94079	40.58823	34.72664	15.54865	0.3052	 	1.220018198E9	 	2.01288E-9	 	5353.505	27.2646	 
225.0	1.0	0.0	1.75698	14.02006	-8.2011	26.71263	122.27238	0.0998155	10.01849	40.73149	34.78646	15.60773	0.30485	 	1.644736357E9	 	1.47826E-9	 	5217.437	27.2136	 
