T (C)	Fraction solid (wt)-TOTAL	Fraction liquid (wt)-LIQUID	Density (g/(cm)^3)-TOTAL	Molar volume (cm^3)-TOTAL	Volume change (%)-  	Average expansion coeff. (10e-6 1/K)-  	Thermal conductivity (W/(m*K))-TOTAL	Electrical resistivity (10e-6 Ohm*m)-TOTAL	Electrical conductivity (10e6 1/(Ohm*m))-TOTAL	Young's modulus (GPa)-TOTAL	Bulk modulus (GPa)-TOTAL	Shear modulus(GPa)-TOTAL	Poisson's ratio-TOTAL	Liquid viscosity (mPa s)-  	Total viscosity (mPa s)-  	Liquid diffusivity (10e-9 (m^2)/s)-  	Total diffusivity (10e-9 (m^2)/s)-  	Surface Tension (mN/m)-  	Enthalpy (J/mole)-TOTAL	Specific heat (J/(mole K))-TOTAL	Latent heat (J/mole)-TOTAL
700.0	0.0015	0.9985	1.62182	15.26359	0.0	52.92718	80.49344	0.2962	3.37609	1.29816E-11	25.02744	4.32767E-12	0.49984	1.24774	1.24774	3.80665	3.80665	604.84034	27599.44	 	0.0
695.0	0.00213	0.99787	1.62316	15.25099	-0.0825677	52.86735	80.16167	0.2959	3.37954	5.29248E-11	25.09436	1.76443E-11	0.49977	1.26168	1.26168	3.74525	3.74525	605.28405	27412.655	37.357	15.244
690.0	0.00273	0.99727	1.6245	15.23852	-0.16427	52.81144	79.8298	0.29559	3.38302	1.44652E-10	25.16159	4.82267E-11	0.49971	1.27595	1.27595	3.68423	3.68423	605.7353	27226.434	37.2442	29.915
685.0	0.00331	0.99669	1.62583	15.226	-0.24628	52.75291	79.49694	0.29529	3.3865	3.14532E-10	25.22878	1.04869E-10	0.49965	1.29057	1.29057	3.6236	3.6236	606.19466	27040.762	37.1344	44.031
680.0	0.00387	0.99613	1.62716	15.21359	-0.32756	52.69767	79.16393	0.29499	3.39	5.89737E-10	25.29623	1.96633E-10	0.49959	1.30553	1.30553	3.56336	3.56336	606.66227	26855.622	37.028	57.605
675.0	0.00441	0.99559	1.62848	15.20113	-0.40919	52.6395	78.82992	0.29468	3.3935	9.96373E-10	25.36362	3.32229E-10	0.49953	1.32086	1.32086	3.50353	3.50353	607.13868	26670.999	36.9246	70.653
670.0	0.00492	0.99508	1.6298	15.18893	-0.48915	52.59008	78.49651	0.29437	3.39706	1.55879E-9	25.43148	5.19777E-10	0.49948	1.33657	1.33657	3.4441	3.4441	607.62387	26486.879	36.824	83.191
665.0	0.00542	0.99458	1.63111	15.17666	-0.56952	52.53747	78.16209	0.29406	3.40062	2.29821E-9	25.49928	7.66367E-10	0.49942	1.35266	1.35266	3.38509	3.38509	608.11855	26303.246	36.7266	95.232
660.0	0.00589	0.99411	1.63242	15.16448	-0.64933	52.48728	77.82743	0.29375	3.4042	3.23234E-9	25.56724	1.0779E-9	0.49937	1.36915	1.36915	3.3265	3.3265	608.6229	26120.086	36.632	106.792
655.0	0.00635	0.99365	1.63372	15.15238	-0.7286	52.43947	77.49252	0.29344	3.40781	4.37503E-9	25.63536	1.459E-9	0.49932	1.38605	1.38605	3.26834	3.26834	609.13726	25937.393	36.5386	117.884
650.0	0.00678	0.99322	1.63502	15.14035	-0.80738	52.39382	77.15734	0.29313	3.41145	5.73712E-9	25.70364	1.9133E-9	0.49927	1.40337	1.40337	3.21061	3.21061	609.66198	25755.157	36.4472	128.52
645.0	0.0072	0.9928	1.63631	15.12839	-0.88574	52.34993	76.82186	0.29282	3.41511	7.32432E-9	25.77201	2.4427E-9	0.49923	1.42112	1.42112	3.15333	3.15333	610.51603	25573.686	36.2942	138.715
640.0	0.0076	0.9924	1.6376	15.1165	-0.96364	52.30804	76.4861	0.2925	3.4188	9.13922E-9	25.84053	3.04806E-9	0.49919	1.43933	1.43933	3.09649	3.09649	611.03816	25393.313	36.0746	148.481
635.0	0.00798	0.99202	1.63888	15.10468	-1.0411	52.26815	76.15006	0.29218	3.42252	1.11814E-8	25.90918	3.72927E-9	0.49914	1.45799	1.45799	3.0401	3.0401	611.57302	25214.019	35.8588	157.831
630.0	0.00835	0.99165	1.64016	15.0929	-1.1183	52.22917	75.81363	0.29186	3.42627	1.34474E-8	25.97788	4.48514E-9	0.4991	1.47714	1.47714	2.98418	2.98418	612.12091	25035.779	35.648	166.778
627.98	0.00849	0.99151	1.64068	15.08813	-1.14953	52.21302	75.67752	0.29173	3.42778	1.4423E-8	26.00563	4.81058E-9	0.49909	1.48501	1.48501	2.96172	2.96172	612.34603	24964.068	35.5023	170.281
625.0	0.16718	0.83282	1.65102	14.99361	-1.76875	48.66351	83.30794	0.26414	3.78592	0.0161408	25.98678	0.00547944	0.47285	1.49861	3.7672	2.92514	1.16363	617.2053	23530.324	481.106	1503.584
620.0	0.35057	0.64943	1.66338	14.8822	-2.4987	44.54484	93.41512	0.23425	4.26901	0.36146	26.20478	0.12533	0.44204	1.52229	44.67811	2.8636	0.09757	624.9541	21832.08	339.649	3033.809
615.0	0.47118	0.52882	1.67187	14.80661	-2.99392	41.8246	101.45973	0.21447	4.66274	1.24171	26.40165	0.43678	0.42144	1.54686	155.91997	2.80235	0.0278017	632.07235	20668.129	232.79	4030.365
610.0	0.5559	0.4441	1.67811	14.75144	-3.35537	39.9018	107.8539	0.20062	4.98466	2.4829	26.58547	0.88249	0.40676	1.57223	330.78159	2.74161	0.0130311	638.59596	19808.687	171.888	4723.024
605.0	0.61833	0.38167	1.68294	14.70896	-3.63371	38.47469	113.09902	0.19023	5.25683	3.88862	26.76038	1.39297	0.3958	1.59835	556.79956	2.68153	0.00769762	644.58301	19137.835	134.17	5227.697
600.0	0.66602	0.33398	1.68683	14.67484	-3.85719	37.37486	117.32908	0.18233	5.48467	5.33108	26.92878	1.92137	0.38731	1.62521	825.82319	2.62221	0.00516046	650.09459	18591.163	109.334	5608.785
595.0	0.7035	0.2965	1.69007	14.64662	-4.04211	36.50537	120.74704	0.17615	5.67696	6.73877	27.09227	2.4406	0.38056	1.65278	1134.14517	2.5637	0.00373605	655.18728	18130.216	92.1894	5904.735
590.0	0.73364	0.26636	1.69282	14.62251	-4.20005	35.79678	123.52214	0.1712	5.84107	8.07812	27.2516	2.93741	0.37504	1.68107	1481.83628	2.50603	0.00284297	659.91224	17730.711	79.901	6139.818
585.0	0.75835	0.24165	1.69523	14.60155	-4.33738	35.21134	125.785	0.16715	5.98273	9.33406	27.40757	3.40545	0.37046	1.71009	1871.02824	2.44924	0.00223856	664.31317	17376.618	70.8186	6330.059
580.0	0.77893	0.22107	1.69737	14.58293	-4.45937	34.71734	127.63953	0.16376	6.10652	10.50415	27.56056	3.84324	0.36658	1.73984	2306.01714	2.39333	0.00180572	668.4285	17056.956	63.9324	6486.427
575.0	0.79629	0.20371	1.69929	14.56615	-4.56931	34.29526	129.16628	0.16088	6.21599	11.59126	27.71093	4.25136	0.36324	1.77034	2792.56074	2.33832	0.00148237	672.29094	16763.972	58.5968	6616.67
570.0	0.81112	0.18888	1.70105	14.5508	-4.66988	33.92884	130.42553	0.15838	6.31381	12.60028	27.85888	4.63129	0.36034	1.8016	3337.45077	2.28419	0.00123304	675.92897	16492.049	54.3846	6726.395
565.0	0.82392	0.17608	1.70268	14.53661	-4.76283	33.60777	131.46736	0.1562	6.40221	13.53809	28.00463	4.98534	0.35779	1.83365	3949.33256	2.23096	0.00103582	679.36688	16237.024	51.005	6819.757
560.0	0.83508	0.16492	1.7042	14.52341	-4.84929	33.3254	132.33015	0.15425	6.4829	14.4114	28.14843	5.31581	0.35552	1.86651	4638.10113	2.17861	8.76738E-4	682.62547	15995.752	48.2544	6899.894
555.0	0.84486	0.15514	1.70563	14.51094	-4.931	33.07083	133.04346	0.1525	6.5572	15.22663	28.29015	5.62496	0.35349	1.90021	5415.21046	2.12713	7.46415E-4	685.72385	15765.818	45.9868	6969.212
553.83	0.84695	0.15305	1.70596	14.50816	-4.94926	33.01628	133.19225	0.15212	6.57378	15.40831	28.32295	5.69394	0.35305	1.90818	5610.20925	2.11527	7.19458E-4	686.42321	15713.721	 	6983.957
550.0	0.85433	0.14567	1.70702	14.49887	-5.01008	32.82989	133.6955	0.15084	6.62936	16.05306	28.43446	5.93894	0.35151	1.93401	6317.87219	2.07734	6.35909E-4	688.7812	15535.297	46.1042	7039.629
545.0	0.86292	0.13708	1.70834	14.48732	-5.08575	32.60848	134.23923	0.14932	6.697	16.84323	28.57763	6.23972	0.34968	1.96847	7347.26231	2.02857	5.43493E-4	691.72298	15311.714	44.7166	7103.613
540.0	0.87054	0.12946	1.70961	14.47633	-5.15773	32.40923	134.67772	0.14792	6.76019	17.58168	28.71845	6.52131	0.34802	2.00386	8514.56209	1.98057	4.66117E-4	694.52698	15096.923	42.9582	7159.302
535.0	0.87732	0.12268	1.71082	14.46579	-5.22684	32.22692	135.02707	0.14663	6.81966	18.274	28.85698	6.78575	0.3465	2.0402	9841.07563	1.93333	4.00808E-4	697.20766	14889.553	41.474	7208.06
530.0	0.88341	0.11659	1.71198	14.45564	-5.29329	32.06038	135.30044	0.14543	6.87601	18.92472	28.99347	7.03468	0.3451	2.07752	11351.49926	1.88685	3.45327E-4	699.77689	14688.504	40.2098	7250.981
525.0	0.88889	0.11111	1.71311	14.44584	-5.35754	31.90669	135.51014	0.1443	6.92981	19.53895	29.12797	7.27	0.34381	2.11587	13075.28256	1.84112	2.97934E-4	702.2455	14492.886	39.1236	7288.946
520.0	0.89385	0.10615	1.7142	14.43633	-5.41985	31.7644	135.66353	0.14324	6.98139	20.11957	29.26062	7.49275	0.3426	2.15529	15045.49362	1.79613	2.57298E-4	704.62273	14301.971	38.183	7322.678
516.24	0.89729	0.10271	1.71501	14.42934	-5.4656	31.6639	135.74883	0.14247	7.01906	20.53675	29.35917	7.65298	0.34175	2.18566	16713.77826	1.76277	2.30517E-4	706.35479	14161.141	 	7345.595
516.24	0.89729	0.10271	1.71501	14.42934	-5.4656	31.6639	135.74883	0.14247	7.01906	20.53675	29.35917	7.65298	0.34175	2.18566	16713.77826	1.76277	2.30517E-4	706.35479	14161.141	 	7345.595
515.0	0.89837	0.10163	1.71527	14.42706	-5.48054	31.63147	135.77257	0.14222	7.03132	20.67144	29.39141	7.70474	0.34147	2.19579	17302.78746	1.75188	2.22321E-4	706.91784	14115.061	37.382	7352.867
510.0	0.90254	0.0974551	1.71631	14.41799	-5.53997	31.5053	135.84075	0.14125	7.07977	21.20016	29.52039	7.90811	0.34041	2.2374	19895.9411	1.70839	1.92118E-4	709.14442	13931.363	36.7396	7380.301
505.0	0.90636	0.0936427	1.71733	14.40915	-5.59791	31.38802	135.87209	0.14031	7.1269	21.70371	29.64776	8.10202	0.3394	2.28023	22875.85928	1.6656	1.66025E-4	711.29942	13750.993	36.074	7404.856
500.0	0.90986	0.0901388	1.71833	14.40047	-5.65477	31.27663	135.87108	0.13941	7.17294	22.18504	29.77349	8.2876	0.33845	2.32433	26306.50412	1.6235	1.43446E-4	713.38955	13573.559	35.4868	7426.918
495.0	0.91309	0.086909	1.71932	14.39196	-5.71049	31.17186	135.84206	0.13854	7.21809	22.64582	29.89763	8.46546	0.33754	2.36974	30262.65978	1.5821	1.23887E-4	715.41983	13398.733	34.9652	7446.81
490.0	0.91608	0.0839205	1.72028	14.38361	-5.76525	31.07243	135.78783	0.13769	7.26248	23.08846	30.02028	8.63651	0.33668	2.41651	34833.22357	1.54138	1.06931E-4	717.39526	13226.236	34.4994	7464.803
485.0	0.91885	0.0811469	1.72123	14.37537	-5.81923	30.97706	135.71124	0.13687	7.30625	23.51455	30.14137	8.80134	0.33585	2.4647	40122.60633	1.50133	9.22259E-5	719.32038	13055.834	34.0804	7481.127
480.0	0.92143	0.0785656	1.72217	14.36725	-5.87239	30.88625	135.61541	0.13606	7.34956	23.92539	30.26099	8.96044	0.33506	2.51438	46254.65828	1.46197	7.94717E-5	721.19877	12887.325	33.7018	7495.978
475.0	0.92384	0.0761564	1.7231	14.35925	-5.92481	30.79953	135.50189	0.13527	7.39249	24.3224	30.37917	9.11434	0.33429	2.56559	53376.31848	1.42327	6.84111E-5	723.03393	12720.535	33.358	7509.523
470.0	0.9261	0.0739018	1.72401	14.35135	-5.97654	30.71655	135.37283	0.1345	7.43514	24.7067	30.49593	9.26347	0.33356	2.61841	61662.14185	1.38524	5.88226E-5	724.82898	12555.313	33.0444	7521.907
465.0	0.92821	0.0717864	1.72492	14.34354	-6.02777	30.63593	135.22945	0.13373	7.47757	25.07951	30.61125	9.40828	0.33284	2.67291	71320.05436	1.34787	5.05149E-5	726.58712	12391.53	32.7566	7533.256
460.0	0.9302	0.0697982	1.72582	14.33581	-6.07836	30.55887	135.07316	0.13298	7.51987	25.44143	30.72522	9.54901	0.33215	2.72915	82597.78279	1.31115	4.33223E-5	728.31045	12229.07	32.492	7543.678
455.0	0.93208	0.0679236	1.72671	14.32817	-6.12845	30.48427	134.90526	0.13224	7.56209	25.79345	30.83781	9.68601	0.33148	2.78722	95792.06448	1.27508	3.71004E-5	730.0016	12067.833	32.2474	7553.269
450.0	0.93385	0.0661547	1.72759	14.32059	-6.1781	30.41181	134.7269	0.1315	7.60431	26.13641	30.94905	9.81962	0.33083	2.8472	111258.7483	1.23964	3.17235E-5	731.66276	11907.731	32.0204	7562.111
445.0	0.93552	0.06448	1.72846	14.31309	-6.22726	30.3418	134.53877	0.13078	7.64656	26.47082	31.05896	9.95003	0.33019	2.90918	129424.3462	1.20485	2.70823E-5	733.29572	11748.686	31.809	7570.278
440.0	0.93711	0.0628925	1.72933	14.30564	-6.27603	30.27369	134.34229	0.13006	7.68893	26.79729	31.16754	10.07746	0.32957	2.97324	150802.6524	1.17068	2.30812E-5	734.90244	11590.628	31.6116	7577.835
435.0	0.93861	0.0613861	1.73019	14.29826	-6.32442	30.20726	134.1372	0.12934	7.7314	27.11654	31.27481	10.20219	0.32896	3.03949	176014.1394	1.13713	1.96365E-5	736.48458	11433.495	31.4266	7584.838
430.0	0.94005	0.0599524	1.73105	14.29094	-6.37237	30.14333	133.92463	0.12863	7.77403	27.42886	31.38082	10.32432	0.32836	3.10802	205808.2319	1.10421	1.66752E-5	738.04336	11277.231	31.2528	7591.338
425.0	0.94141	0.0585865	1.7319	14.28367	-6.41997	30.08087	133.70537	0.12793	7.81689	27.7346	31.48556	10.44399	0.32778	3.17894	241091.7073	1.0719	1.41336E-5	739.58051	11121.787	31.0888	7597.38
420.0	0.94272	0.0572832	1.73274	14.27645	-6.4673	30.01942	133.47982	0.12723	7.86	28.03456	31.589	10.5615	0.3272	3.25238	282970.962	1.04019	1.19556E-5	741.09748	10967.119	30.9336	7603.005
415.0	0.94396	0.0560383	1.73358	14.26928	-6.51427	29.95982	133.24769	0.12653	7.90334	28.32881	31.69119	10.67689	0.32664	3.32845	332788.5704	1.00909	1.00926E-5	742.59514	10813.186	30.7866	7608.248
410.0	0.94515	0.0548458	1.73442	14.26215	-6.56096	29.90133	133.00984	0.12583	7.94697	28.61787	31.79215	10.79034	0.32609	3.40727	392186.8487	0.97858	8.50178E-6	744.0749	10659.954	30.6464	7613.143
406.39	0.94598	0.0540175	1.73502	14.25704	-6.59445	29.8603	132.83618	0.12533	7.97876	28.8232	31.86428	10.87099	0.32569	3.46598	442142.8798	0.95692	7.50134E-6	745.13242	10549.739	 	7616.473
406.39	0.94598	0.0540175	1.73502	14.25704	-6.59445	29.8603	132.83618	0.12533	7.97876	28.8232	31.86428	10.87099	0.32569	3.46598	442142.8798	0.95692	7.50134E-6	745.13242	10549.739	 	7616.473
405.0	0.94629	0.0537057	1.73525	14.25508	-6.60731	29.84463	132.76848	0.12514	7.99104	28.90145	31.89188	10.90174	0.32554	3.48899	463167.5786	0.94867	7.14619E-6	745.53721	10507.397	30.5114	7617.712
400.0	0.94739	0.0526076	1.73608	14.24804	-6.65345	29.78853	132.5202	0.12445	8.03534	29.18095	31.99039	11.01164	0.325	3.57375	548210.4643	0.91934	5.9931E-6	746.98437	10355.465	30.3864	7622.0
399.75	0.94744	0.0525551	1.73612	14.24769	-6.65568	29.78634	132.50791	0.12442	8.03757	29.19459	31.99529	11.017	0.32498	3.57805	552868.3003	0.91789	5.9404E-6	747.05588	10347.907	 	7622.205
399.24	0.94758	0.0524172	1.7362	14.24696	-6.66052	29.77951	132.48319	0.12434	8.04221	29.22666	32.00547	11.02961	0.32492	3.58695	562664.609	0.91491	5.83252E-6	747.2178	10332.047	 	7622.917
395.0	0.95602	0.0439829	1.73723	14.23713	-6.72489	29.47848	132.49205	0.12355	8.09375	30.32593	32.10233	11.45861	0.32328	3.69377	669766.4222	0.88286	4.86897E-6	749.98809	10155.364	40.0202	7674.797
390.0	0.96339	0.0366142	1.73828	14.22693	-6.79171	29.20661	132.44151	0.12267	8.15166	31.34768	32.21143	11.8583	0.32176	3.82238	815994.2949	0.84677	3.96654E-6	752.84873	9963.861	38.3006	7719.333
385.0	0.96889	0.0311122	1.73922	14.21773	-6.85198	28.99444	132.34078	0.12184	8.20735	32.16405	32.31634	12.17839	0.32054	3.95396	989319.3301	0.81242	3.24695E-6	755.3762	9784.632	35.8458	7751.927
380.0	0.97314	0.0268618	1.74008	14.20921	-6.90783	28.82218	132.20527	0.12104	8.26171	32.83887	32.41799	12.44355	0.31951	4.08872	1196696.337	0.77967	2.66389E-6	757.64905	9613.685	34.1894	7776.568
375.0	0.97651	0.023488	1.74089	14.20116	-6.96055	28.678	132.04505	0.12026	8.31535	33.41244	32.51699	12.6694	0.31863	4.22697	1446477.329	0.7484	2.18701E-6	759.72194	9448.595	33.018	7795.677
370.0	0.97925	0.020749	1.74167	14.19346	-7.011	28.55397	131.86412	0.1195	8.36851	33.91153	32.61372	12.8663	0.31784	4.36896	1748902.044	0.71849	1.79487E-6	761.63475	9287.809	32.1572	7810.804
367.06	0.98062	0.0193761	1.74211	14.18906	-7.03985	28.48847	131.75174	0.11905	8.39984	34.17702	32.66971	12.9712	0.31742	4.45443	1956560.848	0.70148	1.59703E-6	762.69857	9194.749	 	7818.236
365.0	0.98178	0.0182178	1.74242	14.18592	-7.06037	28.4379	131.67873	0.11873	8.42222	34.38685	32.70966	13.05416	0.31708	4.51295	2118516.299	0.69016	1.4702E-6	763.45601	9128.73	31.8158	7824.543
360.12	0.98425	0.0157541	1.74315	14.17865	-7.10801	28.32709	131.49865	0.11799	8.47546	34.85042	32.80326	13.23765	0.31634	4.65468	2560543.871	0.66403	1.20711E-6	765.16295	8974.255	 	7837.593
357.23	0.99171	0.00829451	1.74365	14.17249	-7.14839	28.12549	131.56382	0.11739	8.51863	35.79913	32.8735	13.61158	0.31502	4.77101	2925311.042	0.64488	1.05176E-6	766.59417	8849.775	 	7878.194
357.23	0.99171	0.00829451	1.74365	14.17249	-7.14839	28.12549	131.56382	0.11739	8.51863	35.79913	32.8735	13.61158	0.31502	4.77101	2925311.042	0.64488	1.05176E-6	766.59417	8849.775	 	7878.194
355.0	0.99507	0.00493331	1.74396	14.16856	-7.17413	28.02746	131.54819	0.11699	8.54782	36.26088	32.92177	13.79404	0.31437	4.85819	3217388.881	0.63107	9.52898E-7	767.57298	8767.582	36.1148	7895.951
350.0	1.0	0.0	1.74459	14.16066	-7.22587	27.87116	131.44047	0.11615	8.60935	36.99559	33.02337	14.08513	0.31329	 	3957302.883	 	7.68564E-7	 	8598.434	33.8296	7920.693
345.0	1.0	0.0	1.74538	14.15429	-7.26761	27.82523	131.17484	0.11545	8.66145	37.16129	33.10883	14.152	0.31293	 	4806320.338	 	6.27723E-7	 	8437.152	32.2564	 
340.0	1.0	0.0	1.74616	14.14794	-7.30923	27.7793	130.90924	0.11475	8.7144	37.32606	33.19316	14.21857	0.31258	 	5856024.049	 	5.11035E-7	 	8295.18	28.3944	 
335.0	1.0	0.0	1.74695	14.14161	-7.35072	27.73337	130.64367	0.11405	8.76822	37.48992	33.27637	14.28482	0.31223	 	7158197.295	 	4.14662E-7	 	8153.459	28.3442	 
330.0	1.0	0.0	1.74773	14.13529	-7.39209	27.68744	130.37814	0.11334	8.82294	37.65286	33.35846	14.35075	0.31188	 	8779104.805	 	3.35322E-7	 	8011.963	28.2992	 
325.0	1.0	0.0	1.7485	14.129	-7.43333	27.64151	130.11264	0.11263	8.87858	37.81488	33.43944	14.41637	0.31153	 	1.080385671E7	 	2.7022E-7	 	7870.726	28.2474	 
320.0	1.0	0.0	1.74928	14.12272	-7.47445	27.59559	129.84717	0.11192	8.93515	37.97598	33.51932	14.48167	0.31117	 	1.334218283E7	 	2.16982E-7	 	7729.754	28.1944	 
315.0	1.0	0.0	1.75006	14.11646	-7.51545	27.54966	129.58174	0.1112	8.99269	38.13616	33.5981	14.54666	0.31082	 	1.653610431E7	 	1.73597E-7	 	7589.046	28.1416	 
310.0	1.0	0.0	1.75083	14.11022	-7.55632	27.50374	129.31635	0.11048	9.05122	38.29542	33.67579	14.61133	0.31047	 	2.057016823E7	 	1.38366E-7	 	7448.601	28.089	 
305.0	1.0	0.0	1.7516	14.10401	-7.59706	27.45781	129.051	0.10976	9.11076	38.45377	33.75239	14.67568	0.31012	 	2.568516009E7	 	1.09861E-7	 	7308.419	28.0364	 
300.0	1.0	0.0	1.75237	14.0978	-7.63769	27.41189	128.78569	0.10904	9.17135	38.61119	33.82792	14.73972	0.30977	 	3.219655601E7	 	8.68852E-8	 	7168.497	27.9844	 
295.0	1.0	0.0	1.75314	14.09162	-7.67818	27.36597	128.52043	0.10831	9.23301	38.7677	33.90237	14.80344	0.30942	 	4.051946431E7	 	6.84362E-8	 	7028.837	27.932	 
290.0	1.0	0.0	1.75391	14.08546	-7.71856	27.32004	128.25521	0.10758	9.29576	38.92329	33.97576	14.86684	0.30906	 	5.120249332E7	 	5.36809E-8	 	6889.436	27.8802	 
285.0	1.0	0.0	1.75467	14.07932	-7.7588	27.27412	127.99004	0.10684	9.35964	39.07796	34.04809	14.92993	0.30871	 	6.497395666E7	 	4.19274E-8	 	6750.294	27.8284	 
280.0	1.0	0.0	1.75544	14.07319	-7.79893	27.22821	127.72491	0.1061	9.42468	39.23171	34.11936	14.9927	0.30836	 	8.280521417E7	 	3.26041E-8	 	6611.41	27.7768	 
275.0	1.0	0.0	1.7562	14.06709	-7.83893	27.18229	127.45984	0.10536	9.49091	39.38454	34.18959	15.05515	0.30801	 	1.059979332E8	 	2.524E-8	 	6472.784	27.7252	 
270.0	1.0	0.0	1.75696	14.061	-7.8788	27.13637	127.19481	0.10462	9.55836	39.53646	34.25877	15.11728	0.30766	 	1.36304914E8	 	1.94489E-8	 	6334.414	27.674	 
265.0	1.0	0.0	1.75772	14.05493	-7.91855	27.09045	126.92985	0.10387	9.62707	39.68745	34.32691	15.17909	0.30731	 	1.760982601E8	 	1.49154E-8	 	6196.301	27.6226	 
260.0	1.0	0.0	1.75847	14.04889	-7.95818	27.04454	126.66493	0.10312	9.69708	39.83753	34.39402	15.24059	0.30696	 	2.286046979E8	 	1.13828E-8	 	6058.444	27.5714	 
255.0	1.0	0.0	1.75923	14.04286	-7.99768	26.99863	126.40008	0.10237	9.76841	39.98669	34.46011	15.30176	0.3066	 	2.982366624E8	 	8.64337E-9	 	5920.841	27.5206	 
250.0	1.0	0.0	1.75998	14.03685	-8.03705	26.95271	126.13529	0.10161	9.84111	40.13493	34.52518	15.36262	0.30625	 	3.910607499E8	 	6.52933E-9	 	5783.493	27.4696	 
245.0	1.0	0.0	1.76073	14.03086	-8.07631	26.9068	125.87056	0.10085	9.91523	40.28225	34.58923	15.42316	0.3059	 	5.154643633E8	 	4.90618E-9	 	5646.4	27.4186	 
240.0	1.0	0.0	1.76148	14.02488	-8.11543	26.86089	125.6059	0.10009	9.99079	40.42866	34.65228	15.48337	0.30555	 	6.831100453E8	 	3.6664E-9	 	5509.56	27.368	 
235.0	1.0	0.0	1.76223	14.01893	-8.15444	26.81498	125.34131	0.0993262	10.06784	40.57415	34.71432	15.54327	0.3052	 	9.103099939E8	 	2.72452E-9	 	5372.974	27.3172	 
230.0	1.0	0.0	1.76298	14.013	-8.19332	26.76907	125.07679	0.0985569	10.14643	40.71872	34.77536	15.60285	0.30485	 	1.220018198E9	 	2.01288E-9	 	5236.642	27.2664	 
