T (C)	Fraction solid (wt)-TOTAL	Fraction liquid (wt)-LIQUID	Density (g/(cm)^3)-TOTAL	Molar volume (cm^3)-TOTAL	Volume change (%)-  	Average expansion coeff. (10e-6 1/K)-  	Thermal conductivity (W/(m*K))-TOTAL	Electrical resistivity (10e-6 Ohm*m)-TOTAL	Electrical conductivity (10e6 1/(Ohm*m))-TOTAL	Young's modulus (GPa)-TOTAL	Bulk modulus (GPa)-TOTAL	Shear modulus(GPa)-TOTAL	Poisson's ratio-TOTAL	Liquid viscosity (mPa s)-  	Total viscosity (mPa s)-  	Liquid diffusivity (10e-9 (m^2)/s)-  	Total diffusivity (10e-9 (m^2)/s)-  	Surface Tension (mN/m)-  	Enthalpy (J/mole)-TOTAL	Specific heat (J/(mole K))-TOTAL	Latent heat (J/mole)-TOTAL
700.0	0.0	1.0	1.58867	15.41283	0.0	52.55332	81.70937	0.29179	3.42709	0.0	24.35329	0.0	0.5	1.24319	1.24319	3.82057	3.82057	542.13928	28116.074	 	0.0
695.0	0.0	1.0	1.58993	15.40056	-0.0796506	52.50707	81.36111	0.29154	3.43011	0.0	24.42203	0.0	0.5	1.25788	1.25788	3.75657	3.75657	543.88613	27944.451	34.3246	0.0
690.0	0.0	1.0	1.5912	15.38833	-0.15898	52.46191	81.01285	0.29128	3.43316	0.0	24.49077	0.0	0.5	1.27289	1.27289	3.69309	3.69309	545.63297	27772.83	34.3242	0.0
685.0	0.0	1.0	1.59246	15.37615	-0.23798	52.41788	80.66459	0.29102	3.43624	0.0	24.55951	0.0	0.5	1.28824	1.28824	3.63014	3.63014	547.3798	27601.212	34.3236	0.0
680.0	0.0	1.0	1.59372	15.36403	-0.31666	52.37499	80.31633	0.29075	3.43935	0.0	24.62825	0.0	0.5	1.30394	1.30394	3.56771	3.56771	549.12663	27429.596	34.3232	0.0
675.0	0.0	1.0	1.59497	15.35195	-0.39502	52.33327	79.96807	0.29049	3.4425	0.0	24.69699	0.0	0.5	1.32	1.32	3.50582	3.50582	550.87345	27257.983	34.3226	0.0
670.0	0.0	1.0	1.59622	15.33992	-0.47306	52.29276	79.61981	0.29022	3.44567	0.0	24.76573	0.0	0.5	1.33643	1.33643	3.44445	3.44445	552.62026	27086.371	34.3224	0.0
665.0	0.0	1.0	1.59747	15.32794	-0.55077	52.25347	79.27156	0.28995	3.44889	0.0	24.83447	0.0	0.5	1.35325	1.35325	3.38362	3.38362	554.36707	26914.762	34.3218	0.0
660.0	0.0	1.0	1.59871	15.31602	-0.62816	52.21545	78.9233	0.28968	3.45213	0.0	24.90321	0.0	0.5	1.37046	1.37046	3.32332	3.32332	556.11387	26743.156	34.3212	0.0
655.0	0.0	1.0	1.59995	15.30414	-0.70522	52.17871	78.57504	0.2894	3.45542	0.0	24.97195	0.0	0.5	1.38807	1.38807	3.26356	3.26356	557.86066	26571.552	34.3208	0.0
650.0	0.0	1.0	1.60119	15.29231	-0.78196	52.14329	78.22678	0.28912	3.45873	0.0	25.0407	0.0	0.5	1.40611	1.40611	3.20434	3.20434	559.60745	26399.95	34.3204	0.0
649.89	0.0	1.0	1.60122	15.29205	-0.78363	52.14253	78.21918	0.28912	3.45881	0.0	25.04219	0.0	0.5	1.40651	1.40651	3.20306	3.20306	559.64555	26396.207	34.3237	0.0
645.0	0.92933	0.0706694	1.65869	14.76206	-4.22226	32.09918	169.20727	0.13294	7.5221	18.81506	25.60532	6.98696	0.34644	1.43502	1310.79508	3.12279	0.00341874	561.92528	18441.841	1626.34	7786.841
640.0	0.96649	0.0335127	1.66185	14.73381	-4.40554	31.26109	175.71642	0.12732	7.85424	22.32052	25.78305	8.33021	0.33973	1.46616	1675.64796	3.03981	0.00265978	564.288	17974.131	93.542	8083.979
638.93	0.97016	0.0298396	1.66226	14.73019	-4.42908	31.17389	176.34813	0.12672	7.89168	22.71457	25.81881	8.48173	0.33903	1.47293	1734.06227	3.02232	0.00256719	564.79208	17909.641	 	8112.225
635.0	1.0	0.0	1.66461	14.70863	-4.56893	30.52947	181.53041	0.12257	8.15879	25.92916	25.97661	9.72121	0.33364	 	2100.45687	 	0.00211023	 	17519.491	90.928	8368.733
630.0	1.0	0.0	1.66546	14.7011	-4.61782	30.48372	181.30764	0.12204	8.19389	26.14316	26.13527	9.80405	0.33328	 	2301.2195	 	0.00191553	 	17312.023	41.4936	 
625.0	1.0	0.0	1.66631	14.69358	-4.66659	30.43796	181.08493	0.12152	8.22938	26.35627	26.29235	9.8866	0.33293	 	2523.73483	 	0.00173697	 	17152.457	31.9132	 
620.0	1.0	0.0	1.66716	14.68608	-4.71524	30.3922	180.86227	0.12099	8.26528	26.56848	26.44788	9.96886	0.33257	 	2770.62795	 	0.00157338	 	16993.265	31.8384	 
615.0	1.0	0.0	1.66801	14.6786	-4.76377	30.34644	180.63967	0.12046	8.30158	26.77979	26.60186	10.05083	0.33222	 	3044.87236	 	0.00142365	 	16834.432	31.7666	 
610.0	1.0	0.0	1.66886	14.67114	-4.81216	30.30069	180.41714	0.11993	8.33829	26.99021	26.7543	10.1325	0.33186	 	3349.84041	 	0.00128676	 	16675.958	31.6948	 
605.0	1.0	0.0	1.66971	14.6637	-4.86044	30.25493	180.19466	0.1194	8.37543	27.19973	26.90522	10.21388	0.33151	 	3689.36153	 	0.00116173	 	16517.839	31.6238	 
600.0	1.0	0.0	1.67055	14.65628	-4.90859	30.20917	179.97224	0.11886	8.41299	27.40836	27.05461	10.29496	0.33115	 	4067.78972	 	0.00104765	 	16360.074	31.553	 
595.0	1.0	0.0	1.6714	14.64888	-4.95662	30.16341	179.74989	0.11833	8.45099	27.61609	27.2025	10.37575	0.3308	 	4490.08179	 	9.43685E-4	 	16202.661	31.4826	 
590.0	1.0	0.0	1.67224	14.64149	-5.00452	30.11766	179.5276	0.11779	8.48944	27.82293	27.34888	10.45625	0.33044	 	4961.88824	 	8.49036E-4	 	16045.598	31.4126	 
585.0	1.0	0.0	1.67308	14.63413	-5.0523	30.0719	179.30537	0.11726	8.52833	28.02886	27.49378	10.53646	0.33009	 	5489.65887	 	7.62965E-4	 	15888.884	31.3428	 
580.0	1.0	0.0	1.67392	14.62678	-5.09996	30.02614	179.08321	0.11672	8.56768	28.23391	27.63719	10.61637	0.32973	 	6080.76588	 	6.84784E-4	 	15732.516	31.2736	 
575.0	1.0	0.0	1.67476	14.61946	-5.14749	29.98039	178.86112	0.11618	8.6075	28.43805	27.77914	10.69598	0.32938	 	6743.64737	 	6.13853E-4	 	15576.493	31.2046	 
570.0	1.0	0.0	1.6756	14.61215	-5.19489	29.93463	178.63909	0.11564	8.6478	28.6413	27.91962	10.77531	0.32903	 	7487.97494	 	5.49575E-4	 	15420.813	31.136	 
565.0	1.0	0.0	1.67644	14.60486	-5.24218	29.88887	178.41714	0.11509	8.68858	28.84366	28.05865	10.85433	0.32867	 	8324.84989	 	4.91396E-4	 	15265.474	31.0678	 
560.0	1.0	0.0	1.67727	14.5976	-5.28933	29.84311	178.19525	0.11455	8.72985	29.04512	28.19623	10.93306	0.32832	 	9267.03292	 	4.38803E-4	 	15110.473	31.0002	 
555.0	1.0	0.0	1.6781	14.59035	-5.33637	29.79736	177.97344	0.114	8.77163	29.24568	28.33238	11.0115	0.32796	 	10329.21386	 	3.91317E-4	 	14955.811	30.9324	 
550.0	1.0	0.0	1.67894	14.58312	-5.38328	29.7516	177.7517	0.11346	8.81391	29.44535	28.4671	11.08964	0.32761	 	11528.32861	 	3.48497E-4	 	14801.483	30.8656	 
545.0	1.0	0.0	1.67977	14.57591	-5.43007	29.70584	177.53003	0.11291	8.85672	29.64412	28.6004	11.16749	0.32725	 	12883.93239	 	3.09935E-4	 	14647.489	30.7988	 
540.0	1.0	0.0	1.6806	14.56871	-5.47673	29.66008	177.30844	0.11236	8.90005	29.842	28.7323	11.24504	0.3269	 	14418.63982	 	2.75254E-4	 	14493.827	30.7324	 
535.0	1.0	0.0	1.68142	14.56154	-5.52327	29.61433	177.08693	0.11181	8.94393	30.03898	28.86279	11.32229	0.32654	 	16158.64485	 	2.44103E-4	 	14340.495	30.6664	 
530.0	1.0	0.0	1.68225	14.55439	-5.56968	29.56857	176.8655	0.11126	8.98836	30.23506	28.9919	11.39925	0.32619	 	18134.33611	 	2.16163E-4	 	14187.491	30.6008	 
525.0	1.0	0.0	1.68307	14.54725	-5.61597	29.52281	176.64415	0.1107	9.03335	30.43025	29.11962	11.47591	0.32583	 	20381.02616	 	1.91137E-4	 	14034.814	30.5354	 
520.0	1.0	0.0	1.6839	14.54014	-5.66214	29.47706	176.42288	0.11015	9.07891	30.62455	29.24596	11.55227	0.32548	 	22939.81772	 	1.68753E-4	 	13882.461	30.4706	 
515.0	1.0	0.0	1.68472	14.53304	-5.70818	29.4313	176.20169	0.10959	9.12505	30.81795	29.37094	11.62834	0.32512	 	25858.63412	 	1.48761E-4	 	13730.431	30.406	 
510.0	1.0	0.0	1.68554	14.52596	-5.7541	29.38554	175.98059	0.10903	9.17178	31.01045	29.49456	11.70411	0.32477	 	29193.4475	 	1.30932E-4	 	13578.722	30.3418	 
505.0	1.0	0.0	1.68636	14.5189	-5.79989	29.33978	175.75958	0.10847	9.21912	31.20205	29.61684	11.77958	0.32441	 	33009.74546	 	1.15056E-4	 	13427.332	30.278	 
500.0	1.0	0.0	1.68718	14.51187	-5.84556	29.29403	175.53865	0.10791	9.26708	31.39277	29.73777	11.85476	0.32406	 	37384.28583	 	1.0094E-4	 	13276.26	30.2144	 
495.0	1.0	0.0	1.688	14.50485	-5.89111	29.24827	175.31782	0.10735	9.31567	31.58258	29.85736	11.92963	0.3237	 	42407.20016	 	8.84083E-5	 	13125.504	30.1512	 
490.0	1.0	0.0	1.68881	14.49785	-5.93653	29.20251	175.09707	0.10678	9.36489	31.7715	29.97564	12.00421	0.32335	 	48184.52028	 	7.73017E-5	 	12975.062	30.0884	 
485.0	1.0	0.0	1.68962	14.49086	-5.98183	29.15676	174.87643	0.10622	9.41478	31.95953	30.09259	12.07849	0.32299	 	54841.2192	 	6.74737E-5	 	12824.932	30.026	 
480.0	1.0	0.0	1.69044	14.4839	-6.027	29.111	174.65587	0.10565	9.46533	32.14666	30.20824	12.15247	0.32264	 	62524.87849	 	5.87916E-5	 	12675.113	29.9638	 
475.0	1.0	0.0	1.69125	14.47696	-6.07205	29.06524	174.43542	0.10508	9.51656	32.33289	30.32258	12.22615	0.32228	 	71410.12048	 	5.11347E-5	 	12525.602	29.9022	 
470.0	1.0	0.0	1.69206	14.47003	-6.11698	29.01949	174.21506	0.10451	9.56848	32.51823	30.43563	12.29954	0.32193	 	81703.97628	 	4.43936E-5	 	12376.399	29.8406	 
465.0	1.0	0.0	1.69286	14.46313	-6.16178	28.97373	173.99481	0.10394	9.62112	32.70267	30.54739	12.37262	0.32157	 	93652.40126	 	3.84691E-5	 	12227.501	29.7796	 
460.0	1.0	0.0	1.69367	14.45624	-6.20645	28.92797	173.77466	0.10336	9.67448	32.88622	30.65788	12.4454	0.32122	 	107548.2007	 	3.32718E-5	 	12078.907	29.7188	 
455.0	1.0	0.0	1.69448	14.44938	-6.25101	28.88221	173.55462	0.10279	9.72858	33.06887	30.76709	12.51789	0.32086	 	123740.6929	 	2.87207E-5	 	11930.615	29.6584	 
450.0	1.0	0.0	1.69528	14.44253	-6.29544	28.83646	173.33468	0.10221	9.78343	33.25062	30.87504	12.59007	0.32051	 	142647.5173	 	2.47429E-5	 	11782.624	29.5982	 
445.0	1.0	0.0	1.69608	14.4357	-6.33974	28.7907	173.11486	0.10164	9.83905	33.43148	30.98174	12.66196	0.32015	 	164769.0973	 	2.12729E-5	 	11634.932	29.5384	 
440.0	1.0	0.0	1.69688	14.42889	-6.38392	28.74494	172.89515	0.10106	9.89546	33.61145	31.08719	12.73354	0.3198	 	190706.3987	 	1.82517E-5	 	11487.536	29.4792	 
435.0	1.0	0.0	1.69768	14.4221	-6.42798	28.69919	172.67556	0.10048	9.95267	33.79052	31.19139	12.80482	0.31945	 	221182.7849	 	1.56265E-5	 	11340.436	29.42	 
430.0	1.0	0.0	1.69848	14.41533	-6.47191	28.65343	172.45608	0.0998931	10.0107	33.96869	31.29436	12.8758	0.31909	 	257070.9836	 	1.335E-5	 	11193.631	29.361	 
425.0	1.0	0.0	1.69927	14.40858	-6.51572	28.60767	172.23672	0.0993091	10.06957	34.14597	31.39611	12.94648	0.31874	 	299426.4426	 	1.13801E-5	 	11047.117	29.3028	 
420.0	1.0	0.0	1.70007	14.40184	-6.55941	28.56192	172.01749	0.0987235	10.1293	34.32236	31.49664	13.01686	0.31838	 	349528.6964	 	9.67901E-6	 	10900.894	29.2446	 
415.0	1.0	0.0	1.70086	14.39513	-6.60297	28.51616	171.79838	0.0981364	10.1899	34.49785	31.59595	13.08694	0.31803	 	408932.8026	 	8.2133E-6	 	10754.961	29.1866	 
410.0	1.0	0.0	1.70165	14.38843	-6.6464	28.4704	171.57941	0.0975477	10.2514	34.67244	31.69406	13.15671	0.31767	 	479533.47	 	6.95319E-6	 	10609.315	29.1292	 
405.0	1.0	0.0	1.70244	14.38176	-6.68972	28.42465	171.36056	0.0969574	10.31381	34.84614	31.79098	13.22618	0.31732	 	563645.2317	 	5.87228E-6	 	10463.955	29.072	 
400.0	1.0	0.0	1.70323	14.3751	-6.7329	28.37889	171.14185	0.0963655	10.37715	35.01894	31.8867	13.29535	0.31696	 	664102.9562	 	4.94724E-6	 	10318.88	29.015	 
395.0	1.0	0.0	1.70402	14.36846	-6.77597	28.33313	170.92328	0.0957721	10.44146	35.19085	31.98123	13.36422	0.31661	 	784388.2173	 	4.15747E-6	 	10174.088	28.9584	 
390.0	1.0	0.0	1.7048	14.36185	-6.81891	28.28738	170.70484	0.095177	10.50674	35.36186	32.07459	13.43279	0.31625	 	928788.6391	 	3.48483E-6	 	10029.578	28.902	 
385.0	1.0	0.0	1.70559	14.35525	-6.86173	28.24162	170.48655	0.0945803	10.57302	35.53198	32.16678	13.50105	0.3159	 	1102599.42	 	2.91336E-6	 	9885.347	28.8462	 
380.0	1.0	0.0	1.70637	14.34867	-6.90442	28.19586	170.26841	0.0939821	10.64033	35.7012	32.25781	13.569	0.31554	 	1312378.976	 	2.42907E-6	 	9741.395	28.7904	 
375.0	1.0	0.0	1.70715	14.34211	-6.94699	28.15011	170.05042	0.0933822	10.70868	35.86952	32.34768	13.63666	0.31519	 	1566274.243	 	2.01974E-6	 	9597.721	28.7348	 
370.0	1.0	0.0	1.70793	14.33556	-6.98943	28.10435	169.83259	0.0927806	10.77811	36.03696	32.4364	13.70401	0.31483	 	1874435.943	 	1.67467E-6	 	9454.322	28.6798	 
365.0	1.0	0.0	1.70871	14.32904	-7.03175	28.05859	169.61491	0.0921775	10.84864	36.20349	32.52398	13.77105	0.31448	 	2249550.399	 	1.38457E-6	 	9311.198	28.6248	 
360.0	1.0	0.0	1.70948	14.32254	-7.07395	28.01284	169.3974	0.0915727	10.92029	36.36913	32.61041	13.83779	0.31412	 	2707522.89	 	1.14136E-6	 	9168.347	28.5702	 
355.0	1.0	0.0	1.71026	14.31605	-7.11602	27.96708	169.18005	0.0909663	10.99309	36.53388	32.69572	13.90423	0.31377	 	3268358.684	 	9.38038E-7	 	9025.767	28.516	 
350.0	1.0	0.0	1.71103	14.30959	-7.15796	27.92132	168.96287	0.0903582	11.06707	36.69773	32.77991	13.97036	0.31341	 	3957302.883	 	7.68564E-7	 	8883.458	28.4618	 
345.0	1.0	0.0	1.7118	14.30314	-7.19979	27.87557	168.74586	0.0897484	11.14226	36.86068	32.86297	14.03619	0.31306	 	4806320.338	 	6.27723E-7	 	8741.418	28.408	 
340.0	1.0	0.0	1.71257	14.29671	-7.24149	27.82981	168.52903	0.089137	11.21868	37.02274	32.94493	14.10171	0.3127	 	5856024.049	 	5.11035E-7	 	8599.645	28.3546	 
335.0	1.0	0.0	1.71334	14.29031	-7.28306	27.78405	168.31239	0.0885239	11.29638	37.18391	33.02578	14.16693	0.31235	 	7158197.295	 	4.14662E-7	 	8458.14	28.301	 
330.0	1.0	0.0	1.7141	14.28392	-7.32452	27.7383	168.09593	0.0879092	11.37538	37.34418	33.10553	14.23184	0.31199	 	8779104.805	 	3.35322E-7	 	8316.899	28.2482	 
325.0	1.0	0.0	1.71487	14.27755	-7.36584	27.69254	167.87967	0.0872927	11.45571	37.50355	33.18419	14.29644	0.31164	 	1.080385671E7	 	2.7022E-7	 	8175.923	28.1952	 
320.0	1.0	0.0	1.71563	14.2712	-7.40705	27.64678	167.6636	0.0866746	11.53741	37.66203	33.26176	14.36074	0.31128	 	1.334218283E7	 	2.16982E-7	 	8035.209	28.1428	 
315.0	1.0	0.0	1.71639	14.26487	-7.44813	27.60103	167.44774	0.0860548	11.62051	37.81961	33.33826	14.42473	0.31093	 	1.653610431E7	 	1.73597E-7	 	7894.758	28.0902	 
310.0	1.0	0.0	1.71715	14.25855	-7.48908	27.55527	167.23208	0.0854332	11.70505	37.9763	33.41368	14.48841	0.31058	 	2.057016823E7	 	1.38366E-7	 	7754.567	28.0382	 
305.0	1.0	0.0	1.71791	14.25226	-7.52991	27.50951	167.01664	0.08481	11.79107	38.1321	33.48803	14.55179	0.31022	 	2.568516009E7	 	1.09861E-7	 	7614.635	27.9864	 
300.0	1.0	0.0	1.71867	14.24599	-7.57062	27.46376	166.80141	0.084185	11.8786	38.287	33.56132	14.61486	0.30987	 	3.219655601E7	 	8.68852E-8	 	7474.963	27.9344	 
295.0	1.0	0.0	1.71942	14.23973	-7.6112	27.418	166.58641	0.0835583	11.96769	38.441	33.63355	14.67762	0.30951	 	4.051946431E7	 	6.84362E-8	 	7335.548	27.883	 
290.0	1.0	0.0	1.72018	14.23349	-7.65166	27.37224	166.37164	0.0829299	12.05838	38.59411	33.70473	14.74007	0.30916	 	5.120249332E7	 	5.36809E-8	 	7196.389	27.8318	 
285.0	1.0	0.0	1.72093	14.22728	-7.692	27.32649	166.1571	0.0822997	12.15072	38.74632	33.77487	14.80222	0.3088	 	6.497395666E7	 	4.19274E-8	 	7057.487	27.7804	 
280.0	1.0	0.0	1.72168	14.22108	-7.73221	27.28073	165.94281	0.0816677	12.24474	38.89764	33.84397	14.86406	0.30845	 	8.280521417E7	 	3.26041E-8	 	6918.839	27.7296	 
275.0	1.0	0.0	1.72243	14.2149	-7.77229	27.23497	165.72877	0.0810341	12.34049	39.04806	33.91203	14.92559	0.30809	 	1.059979332E8	 	2.524E-8	 	6780.445	27.6788	 
270.0	1.0	0.0	1.72317	14.20874	-7.81226	27.18922	165.51499	0.0803986	12.43803	39.19759	33.97907	14.98681	0.30774	 	1.36304914E8	 	1.94489E-8	 	6642.305	27.628	 
265.0	1.0	0.0	1.72392	14.2026	-7.8521	27.14346	165.30146	0.0797614	12.53739	39.34622	34.04509	15.04772	0.30738	 	1.760982601E8	 	1.49154E-8	 	6504.417	27.5776	 
260.0	1.0	0.0	1.72466	14.19648	-7.89181	27.0977	165.08822	0.0791224	12.63865	39.49396	34.11009	15.10832	0.30703	 	2.286046979E8	 	1.13828E-8	 	6366.781	27.5272	 
255.0	1.0	0.0	1.7254	14.19038	-7.9314	27.05195	164.87525	0.0784816	12.74184	39.6408	34.17408	15.16861	0.30667	 	2.982366624E8	 	8.64337E-9	 	6229.396	27.477	 
250.0	1.0	0.0	1.72614	14.1843	-7.97087	27.00619	164.66256	0.077839	12.84702	39.78675	34.23707	15.22859	0.30632	 	3.910607499E8	 	6.52933E-9	 	6092.262	27.4268	 
245.0	1.0	0.0	1.72688	14.17823	-8.01021	26.96043	164.45018	0.0771947	12.95426	39.93181	34.29906	15.28827	0.30596	 	5.154643633E8	 	4.90618E-9	 	5955.377	27.377	 
240.0	1.0	0.0	1.72762	14.17219	-8.04943	26.91468	164.23809	0.0765485	13.06362	40.07596	34.36005	15.34763	0.30561	 	6.831100453E8	 	3.6664E-9	 	5818.743	27.3268	 
235.0	1.0	0.0	1.72835	14.16616	-8.08852	26.86892	164.02633	0.0759005	13.17515	40.21923	34.42006	15.40668	0.30525	 	9.103099939E8	 	2.72452E-9	 	5682.357	27.2772	 
230.0	1.0	0.0	1.72908	14.16016	-8.12749	26.82317	163.81488	0.0752506	13.28892	40.36159	34.47909	15.46542	0.3049	 	1.220018198E9	 	2.01288E-9	 	5546.221	27.2272	 
225.0	1.0	0.0	1.72982	14.15417	-8.16634	26.77741	163.60377	0.074599	13.40501	40.50307	34.53713	15.52385	0.30454	 	1.644736357E9	 	1.47826E-9	 	5410.333	27.1776	 
220.0	1.0	0.0	1.73055	14.1482	-8.20506	26.73165	163.393	0.0739455	13.52348	40.64365	34.59421	15.58197	0.30419	 	2.230780894E9	 	1.07897E-9	 	5274.693	27.128	 
215.0	1.0	0.0	1.73127	14.14225	-8.24366	26.6859	163.18258	0.0732901	13.6444	40.78333	34.65031	15.63977	0.30383	 	3.044591384E9	 	7.82548E-10	 	5139.302	27.0782	 
210.0	1.0	0.0	1.732	14.13632	-8.28213	26.64014	162.97253	0.0726329	13.76786	40.92212	34.70546	15.69727	0.30348	 	4.18212267E9	 	5.63861E-10	 	5004.159	27.0286	 
205.0	1.0	0.0	1.73272	14.13041	-8.32048	26.59438	162.76286	0.0719739	13.89393	41.06001	34.75965	15.75445	0.30312	 	5.782929244E9	 	4.03555E-10	 	4869.265	26.9788	 
200.0	1.0	0.0	1.73345	14.12452	-8.35871	26.54863	162.55357	0.071313	14.0227	41.19701	34.81289	15.81132	0.30277	 	8.051443637E9	 	2.86822E-10	 	4734.619	26.9292	 
195.0	1.0	0.0	1.73417	14.11865	-8.39681	26.50287	162.34468	0.0706501	14.15425	41.33311	34.86518	15.86788	0.30241	 	1.12894E10	 	2.02396E-10	 	4600.222	26.8794	 
190.0	1.0	0.0	1.73489	14.11279	-8.43479	26.45711	162.13621	0.0699854	14.28869	41.46832	34.91653	15.92412	0.30206	 	1.5945399999999998E10	 	1.41766E-10	 	4466.074	26.8296	 
185.0	1.0	0.0	1.73561	14.10696	-8.47264	26.41136	161.92817	0.0693189	14.42609	41.60263	34.96694	15.98005	0.3017	 	2.26921E10	 	9.85418E-11	 	4332.175	26.7798	 
180.0	1.0	0.0	1.73632	14.10114	-8.51037	26.3656	161.72057	0.0686504	14.56657	41.73605	35.01643	16.03567	0.30135	 	3.2545799999999996E10	 	6.7957E-11	 	4198.526	26.7298	 
175.0	1.0	0.0	1.73703	14.09535	-8.54798	26.31985	161.51342	0.06798	14.71022	41.86857	35.06499	16.09098	0.301	 	4.705539999999999E10	 	4.64837E-11	 	4065.129	26.6794	 
170.0	1.0	0.0	1.73775	14.08957	-8.58546	26.27409	161.30675	0.0673076	14.85716	42.0002	35.11262	16.14597	0.30064	 	6.860219999999999E10	 	3.15282E-11	 	3931.982	26.6294	 
165.0	1.0	0.0	1.73846	14.08381	-8.62281	26.22833	161.10056	0.0666334	15.00749	42.13093	35.15934	16.20064	0.30029	 	1.0088E11	 	2.11986E-11	 	3799.089	26.5786	 
160.0	1.0	0.0	1.73917	14.07807	-8.66005	26.18258	160.89488	0.0659572	15.16135	42.26077	35.20515	16.25501	0.29993	 	1.4967E11	 	1.41251E-11	 	3666.449	26.528	 
155.0	1.0	0.0	1.73987	14.07235	-8.69716	26.13682	160.68972	0.0652791	15.31885	42.38971	35.25006	16.30905	0.29958	 	2.24113E11	 	9.32428E-12	 	3534.063	26.4772	 
150.0	1.0	0.0	1.74058	14.06665	-8.73414	26.09107	160.48511	0.064599	15.48012	42.51776	35.29406	16.36279	0.29922	 	3.388E11	 	6.09589E-12	 	3401.934	26.4258	 
145.0	1.0	0.0	1.74128	14.06097	-8.771	26.04531	160.28106	0.0639169	15.6453	42.64492	35.33716	16.4162	0.29887	 	5.17264E11	 	3.94554E-12	 	3270.062	26.3744	 
140.0	1.0	0.0	1.74198	14.05531	-8.80774	25.99955	160.07759	0.0632329	15.81454	42.77117	35.37938	16.46931	0.29851	 	7.97865E11	 	2.52735E-12	 	3138.45	26.3224	 
135.0	1.0	0.0	1.74268	14.04967	-8.84435	25.9538	159.87472	0.0625469	15.98799	42.89654	35.4207	16.52209	0.29816	 	1.24382E12	 	1.60158E-12	 	3007.099	26.2702	 
130.0	1.0	0.0	1.74338	14.04404	-8.88084	25.90804	159.67248	0.061859	16.1658	43.02101	35.46115	16.57456	0.2978	 	1.96051E12	 	1.00366E-12	 	2876.012	26.2174	 
125.0	1.0	0.0	1.74408	14.03844	-8.91721	25.86229	159.47089	0.061169	16.34815	43.14458	35.50071	16.62672	0.29745	 	3.12567E12	 	6.21714E-13	 	2745.19	26.1644	 
120.0	1.0	0.0	1.74477	14.03285	-8.95345	25.81653	159.26997	0.060477	16.5352	43.26726	35.5394	16.67856	0.29709	 	5.04278E12	 	3.80518E-13	 	2614.637	26.1106	 
115.0	1.0	0.0	1.74546	14.02729	-8.98956	25.77077	159.06976	0.059783	16.72715	43.38904	35.57723	16.73008	0.29674	 	8.23662E12	 	2.30005E-13	 	2484.354	26.0566	 
110.0	1.0	0.0	1.74615	14.02174	-9.02556	25.72502	158.87027	0.059087	16.92418	43.50993	35.61418	16.78128	0.29638	 	1.36266E13	 	1.37236E-13	 	2354.345	26.0018	 
