T (C)	Fraction solid (wt)-TOTAL	Fraction liquid (wt)-LIQUID	Density (g/(cm)^3)-TOTAL	Molar volume (cm^3)-TOTAL	Volume change (%)-  	Average expansion coeff. (10e-6 1/K)-  	Thermal conductivity (W/(m*K))-TOTAL	Electrical resistivity (10e-6 Ohm*m)-TOTAL	Electrical conductivity (10e6 1/(Ohm*m))-TOTAL	Young's modulus (GPa)-TOTAL	Bulk modulus (GPa)-TOTAL	Shear modulus(GPa)-TOTAL	Poisson's ratio-TOTAL	Liquid viscosity (mPa s)-  	Total viscosity (mPa s)-  	Liquid diffusivity (10e-9 (m^2)/s)-  	Total diffusivity (10e-9 (m^2)/s)-  	Surface Tension (mN/m)-  	Enthalpy (J/mole)-TOTAL	Specific heat (J/(mole K))-TOTAL	Latent heat (J/mole)-TOTAL
700.0	0.0	1.0	1.6079	15.36634	0.0	52.44174	81.30972	0.29323	3.41033	0.0	24.81283	0.0	0.5	1.26658	1.26658	3.75003	3.75003	542.76423	28242.129	 	0.0
695.0	0.0	1.0	1.60918	15.35411	-0.0796086	52.39497	80.96318	0.29297	3.41333	0.0	24.88305	0.0	0.5	1.2816	1.2816	3.68702	3.68702	544.51089	28070.356	34.3546	0.0
691.67	0.0	1.0	1.61003	15.34598	-0.13249	52.36439	80.73222	0.2928	3.41535	0.0	24.92985	0.0	0.5	1.2918	1.2918	3.64532	3.64532	545.67499	27955.878	34.353	0.0
690.0	2.2E-4	0.99978	1.61047	15.34175	-0.16002	52.34305	80.61464	0.29272	3.41628	7.97333E-16	24.94939	2.65779E-16	0.49999	1.2966	1.2966	3.62555	3.62555	546.24812	27895.044	36.48	3.543
685.0	8.6E-4	0.99914	1.61177	15.32946	-0.24003	52.29262	80.26408	0.29247	3.41918	1.97372E-13	25.00859	6.57925E-14	0.49996	1.31121	1.31121	3.56655	3.56655	547.96691	27712.767	36.4554	14.051
680.0	0.00149	0.99851	1.61306	15.31713	-0.32024	52.24025	79.9132	0.29222	3.42209	1.7923E-12	25.06771	5.97461E-13	0.49993	1.32616	1.32616	3.50795	3.50795	549.68631	27530.677	36.418	24.376
675.0	0.00211	0.99789	1.61436	15.30479	-0.40054	52.18654	79.56203	0.29197	3.42502	7.22894E-12	25.12698	2.4098E-12	0.4999	1.34146	1.34146	3.44973	3.44973	551.40632	27348.771	36.3812	34.518
670.0	0.00271	0.99729	1.61565	15.29258	-0.48006	52.13652	79.21135	0.29172	3.428	1.99904E-11	25.18643	6.66403E-12	0.49987	1.35713	1.35713	3.39192	3.39192	553.12691	27167.049	36.3444	44.479
665.0	0.00331	0.99669	1.61693	15.28049	-0.55872	52.09061	78.86115	0.29146	3.43103	4.44235E-11	25.24618	1.48093E-11	0.49985	1.37318	1.37318	3.33451	3.33451	554.84808	26985.508	36.3082	54.261
660.0	0.0039	0.9961	1.61821	15.26837	-0.63756	52.04296	78.51064	0.2912	3.43408	8.55254E-11	25.30594	2.85119E-11	0.49982	1.38961	1.38961	3.27751	3.27751	556.56984	26804.147	36.2722	63.866
655.0	0.00447	0.99553	1.61949	15.25623	-0.71658	51.99353	78.15981	0.29094	3.43716	1.48827E-10	25.36571	4.96159E-11	0.49979	1.40645	1.40645	3.22093	3.22093	558.29217	26622.963	36.2368	73.295
650.0	0.00503	0.99497	1.62077	15.24421	-0.79477	51.94815	77.80945	0.29067	3.44028	2.40233E-10	25.42574	8.009E-11	0.49977	1.4237	1.4237	3.16477	3.16477	560.01506	26441.956	36.2014	82.551
648.71	0.00518	0.99482	1.62109	15.24123	-0.8142	51.94043	77.71982	0.2906	3.44111	2.6905E-10	25.44127	8.96977E-11	0.49976	1.4282	1.43263	3.15039	3.14066	560.45753	26395.443	 	84.914
648.71	0.00518	0.99482	1.62109	15.24123	-0.8142	51.94043	77.71982	0.2906	3.44111	2.6905E-10	25.44126	8.96977E-11	0.49976	1.4282	1.43263	3.15039	3.14066	560.45753	26395.442	 	84.915
645.0	0.69103	0.30897	1.66396	14.8485	-3.36996	37.05173	127.9305	0.17584	5.68715	5.62881	25.83798	2.02961	0.38667	1.45048	403.02344	3.08951	0.0111191	562.04811	20510.238	1186.34	5842.849
640.0	0.8455	0.1545	1.67453	14.7542	-3.98367	33.67339	148.25608	0.1509	6.62681	13.06598	26.07384	4.80322	0.36013	1.48301	984.5791	3.00528	0.00452666	564.2491	19072.665	287.515	7109.692
635.0	0.89923	0.10077	1.67871	14.71677	-4.22724	32.47707	156.12154	0.14252	7.0168	17.00029	26.25906	6.2936	0.3506	1.51692	1377.52672	2.922	0.00321769	566.46836	18472.421	120.049	7539.888
630.0	0.92641	0.0735919	1.68119	14.69432	-4.37334	31.85505	160.15482	0.13816	7.23792	19.38769	26.42986	7.20414	0.34559	1.55193	1699.35019	2.84036	0.00259396	568.69519	18090.958	76.2926	7751.974
629.86	0.92698	0.0730232	1.68124	14.6938	-4.37673	31.84178	160.23877	0.13807	7.24285	19.44146	26.43456	7.2247	0.34549	1.55293	1707.92947	2.83809	0.00258053	568.75799	18081.821	 	7756.345
625.0	0.95594	0.0440639	1.68361	14.67155	-4.52153	31.20975	164.37426	0.13387	7.46997	22.25725	26.62051	8.30386	0.34018	1.59244	2111.30511	2.75279	0.00207627	570.96932	17674.077	83.3762	8000.139
622.21	0.96498	0.035018	1.68451	14.6628	-4.57844	31.00418	165.63713	0.13244	7.55081	23.2451	26.71772	8.68375	0.33843	1.61537	2308.67684	2.70528	0.00189287	572.23944	17506.585	 	8073.786
620.0	0.97031	0.0296907	1.68512	14.65685	-4.61721	30.87912	166.35351	0.13154	7.60224	23.86229	26.7918	8.92144	0.33736	1.63244	2459.31007	2.67038	0.00177255	573.22778	17389.781	56.8592	8116.37
615.0	0.97875	0.0212482	1.68628	14.64529	-4.6924	30.67091	167.41921	0.12997	7.69401	24.92332	26.95419	9.33067	0.33556	1.67167	2797.06695	2.59312	0.00154978	575.46608	17157.5	46.4562	8181.227
610.0	0.98424	0.0157597	1.68725	14.63532	-4.75732	30.52381	168.03066	0.12877	7.76583	25.70055	27.11189	9.63098	0.33427	1.71173	3146.0852	2.51818	0.0013701	577.70653	16951.399	41.2202	8220.536
605.0	0.98809	0.0119111	1.68813	14.62622	-4.8165	30.41075	168.38899	0.12777	7.8267	26.31495	27.26632	9.8687	0.33325	1.75265	3518.84635	2.44546	0.00121802	579.94807	16759.969	38.286	8245.794
600.0	0.99093	0.00906709	1.68895	14.61768	-4.87212	30.31849	168.59371	0.12689	7.88109	26.82755	27.41818	10.06728	0.33241	1.79447	3924.14032	2.37487	0.001086	582.1902	16577.636	36.4666	8262.567
595.0	0.99312	0.00687987	1.68973	14.60949	-4.92538	30.23992	168.69914	0.12608	7.93144	27.27209	27.56784	10.23969	0.33169	1.83721	4369.42434	2.30633	9.69744E-4	584.43262	16401.377	35.2518	8273.87
590.0	0.99485	0.00514741	1.69048	14.60156	-4.97697	30.1708	168.73802	0.12533	7.97922	27.66881	27.7155	10.39371	0.33104	1.88093	4861.91244	2.23976	8.66495E-4	586.67518	16229.412	34.393	8281.473
585.0	0.99626	0.00374048	1.69121	14.59382	-5.02734	30.10857	168.7317	0.1246	8.02541	28.03064	27.86133	10.53434	0.33044	1.92564	5409.1334	2.17507	7.74323E-4	588.91772	16060.626	33.7572	8286.482
580.0	0.99742	0.00257674	1.69193	14.58623	-5.07677	30.05142	168.69418	0.12391	8.07065	28.36624	28.00541	10.66489	0.32989	1.9714	6019.25885	2.11221	6.91782E-4	591.1602	15894.284	33.2684	8289.623
575.0	0.9984	0.00159776	1.69264	14.57875	-5.12545	29.9982	168.62362	0.12323	8.11483	28.6814	28.14782	10.7876	0.32937	2.01826	6701.3273	2.05108	6.1773E-4	593.40259	15729.885	32.8798	8291.39
574.86	0.99843	0.00157268	1.69266	14.57854	-5.12681	29.99676	168.62058	0.12321	8.11603	28.68988	28.1518	10.7909	0.32936	2.01958	6721.58829	2.0494	6.15766E-4	593.46554	15725.293	 	8291.423
574.86	0.99843	0.00157268	1.69266	14.57854	-5.12681	29.99676	168.62059	0.12321	8.11603	28.68987	28.15179	10.7909	0.32936	2.01958	6721.5491	2.0494	6.1577E-4	593.46542	15725.303	 	8291.422
570.0	0.99926	7.38834E-4	1.69333	14.57134	-5.17367	29.94717	168.52917	0.12257	8.15838	28.98314	28.28866	10.90519	0.32887	2.06654	7466.22724	1.99135	5.51176E-4	595.6394	15566.74	32.629	8292.462
565.0	1.0	0.0	1.69403	14.56401	-5.22137	29.89877	168.47048	0.12189	8.2042	29.27115	28.42792	11.01753	0.32839	 	8324.84989	 	4.91396E-4	 	15404.985	32.351	8292.695
560.0	1.0	0.0	1.69487	14.55676	-5.26855	29.853	168.23779	0.12133	8.24203	29.47337	28.56555	11.0966	0.32804	 	9267.03292	 	4.38803E-4	 	15193.471	42.3028	 
555.0	1.0	0.0	1.69571	14.54953	-5.31561	29.80724	168.00516	0.12077	8.28033	29.67469	28.70176	11.17536	0.32768	 	10329.21386	 	3.91317E-4	 	15038.739	30.9464	 
550.0	1.0	0.0	1.69655	14.54231	-5.36255	29.76148	167.77259	0.12021	8.31909	29.87511	28.83655	11.25383	0.32733	 	11528.32861	 	3.48497E-4	 	14884.343	30.8792	 
545.0	1.0	0.0	1.69739	14.53512	-5.40936	29.71571	167.54008	0.11964	8.35833	30.07464	28.96992	11.33201	0.32698	 	12883.93239	 	3.09935E-4	 	14730.279	30.8128	 
540.0	1.0	0.0	1.69823	14.52795	-5.45604	29.66995	167.30763	0.11908	8.39806	30.27327	29.1019	11.40989	0.32662	 	14418.63982	 	2.75254E-4	 	14576.547	30.7464	 
535.0	1.0	0.0	1.69907	14.52079	-5.5026	29.62419	167.07525	0.11851	8.43828	30.47101	29.23247	11.48747	0.32627	 	16158.64485	 	2.44103E-4	 	14423.144	30.6806	 
530.0	1.0	0.0	1.6999	14.51366	-5.54904	29.57843	166.84294	0.11794	8.47901	30.66785	29.36166	11.56475	0.32592	 	18134.33611	 	2.16163E-4	 	14270.07	30.6148	 
525.0	1.0	0.0	1.70074	14.50654	-5.59536	29.53267	166.61069	0.11737	8.52025	30.8638	29.48947	11.64174	0.32557	 	20381.02616	 	1.91137E-4	 	14117.321	30.5498	 
520.0	1.0	0.0	1.70157	14.49944	-5.64155	29.4869	166.37852	0.11679	8.56201	31.05885	29.61591	11.71844	0.32521	 	22939.81772	 	1.68753E-4	 	13964.897	30.4848	 
515.0	1.0	0.0	1.7024	14.49236	-5.68761	29.44114	166.14641	0.11622	8.60431	31.253	29.74099	11.79483	0.32486	 	25858.63412	 	1.48761E-4	 	13812.795	30.4204	 
510.0	1.0	0.0	1.70323	14.4853	-5.73355	29.39538	165.91437	0.11565	8.64715	31.44626	29.86471	11.87093	0.32451	 	29193.4475	 	1.30932E-4	 	13661.014	30.3562	 
505.0	1.0	0.0	1.70406	14.47826	-5.77937	29.34962	165.68241	0.11507	8.69054	31.63863	29.98709	11.94673	0.32415	 	33009.74546	 	1.15056E-4	 	13509.552	30.2924	 
500.0	1.0	0.0	1.70488	14.47124	-5.82506	29.30386	165.45053	0.11449	8.73451	31.8301	30.10814	12.02224	0.3238	 	37384.28583	 	1.0094E-4	 	13358.407	30.229	 
495.0	1.0	0.0	1.70571	14.46424	-5.87063	29.2581	165.21872	0.11391	8.77904	32.02067	30.22785	12.09744	0.32345	 	42407.20016	 	8.84083E-5	 	13207.578	30.1658	 
490.0	1.0	0.0	1.70653	14.45726	-5.91608	29.21234	164.98698	0.11333	8.82417	32.21035	30.34625	12.17235	0.3231	 	48184.52028	 	7.73017E-5	 	13057.062	30.1032	 
485.0	1.0	0.0	1.70736	14.45029	-5.9614	29.16659	164.75533	0.11274	8.86989	32.39914	30.46333	12.24696	0.32274	 	54841.2192	 	6.74737E-5	 	12906.859	30.0406	 
480.0	1.0	0.0	1.70818	14.44335	-6.00659	29.12083	164.52376	0.11216	8.91623	32.58703	30.5791	12.32127	0.32239	 	62524.87849	 	5.87916E-5	 	12756.966	29.9786	 
475.0	1.0	0.0	1.709	14.43642	-6.05166	29.07507	164.29227	0.11157	8.96318	32.77403	30.69358	12.39528	0.32204	 	71410.12048	 	5.11347E-5	 	12607.382	29.9168	 
470.0	1.0	0.0	1.70981	14.42952	-6.09661	29.02931	164.06086	0.11098	9.01078	32.96013	30.80677	12.46899	0.32168	 	81703.97628	 	4.43936E-5	 	12458.105	29.8554	 
465.0	1.0	0.0	1.71063	14.42263	-6.14144	28.98355	163.82955	0.11039	9.05903	33.14533	30.91868	12.54241	0.32133	 	93652.40126	 	3.84691E-5	 	12309.133	29.7944	 
460.0	1.0	0.0	1.71145	14.41576	-6.18614	28.93779	163.59832	0.10979	9.10793	33.32964	31.02931	12.61552	0.32098	 	107548.2007	 	3.32718E-5	 	12160.465	29.7336	 
455.0	1.0	0.0	1.71226	14.40891	-6.23071	28.89204	163.36718	0.1092	9.15752	33.51306	31.13868	12.68834	0.32062	 	123740.6929	 	2.87207E-5	 	12012.099	29.6732	 
450.0	1.0	0.0	1.71307	14.40208	-6.27516	28.84628	163.13613	0.1086	9.2078	33.69558	31.24679	12.76085	0.32027	 	142647.5173	 	2.47429E-5	 	11864.033	29.6132	 
445.0	1.0	0.0	1.71388	14.39527	-6.31949	28.80052	162.90518	0.10801	9.25878	33.87721	31.35364	12.83307	0.31992	 	164769.0973	 	2.12729E-5	 	11716.267	29.5532	 
440.0	1.0	0.0	1.71469	14.38848	-6.36369	28.75477	162.67432	0.10741	9.31048	34.05795	31.45926	12.90498	0.31957	 	190706.3987	 	1.82517E-5	 	11568.797	29.494	 
435.0	1.0	0.0	1.7155	14.3817	-6.40777	28.70901	162.44356	0.1068	9.36292	34.23779	31.56363	12.9766	0.31921	 	221182.7849	 	1.56265E-5	 	11421.624	29.4346	 
430.0	1.0	0.0	1.71631	14.37495	-6.45173	28.66326	162.21291	0.1062	9.41611	34.41673	31.66678	13.04791	0.31886	 	257070.9836	 	1.335E-5	 	11274.744	29.376	 
425.0	1.0	0.0	1.71711	14.36821	-6.49556	28.6175	161.98235	0.1056	9.47006	34.59478	31.7687	13.11892	0.31851	 	299426.4426	 	1.13801E-5	 	11128.156	29.3176	 
420.0	1.0	0.0	1.71791	14.3615	-6.53927	28.57175	161.75191	0.10499	9.5248	34.77194	31.86941	13.18963	0.31815	 	349528.6964	 	9.67901E-6	 	10981.86	29.2592	 
415.0	1.0	0.0	1.71871	14.3548	-6.58285	28.52599	161.52156	0.10438	9.58035	34.9482	31.96891	13.26004	0.3178	 	408932.8026	 	8.2133E-6	 	10835.853	29.2014	 
410.0	1.0	0.0	1.71951	14.34812	-6.62631	28.48024	161.29134	0.10377	9.63671	35.12357	32.06721	13.33015	0.31745	 	479533.47	 	6.95319E-6	 	10690.133	29.144	 
405.0	1.0	0.0	1.72031	14.34146	-6.66964	28.43448	161.06122	0.10316	9.69391	35.29804	32.16432	13.39996	0.3171	 	563645.2317	 	5.87228E-6	 	10544.7	29.0866	 
400.0	1.0	0.0	1.72111	14.33482	-6.71285	28.38873	160.83122	0.10254	9.75197	35.47162	32.26024	13.46946	0.31674	 	664102.9562	 	4.94724E-6	 	10399.552	29.0296	 
395.0	1.0	0.0	1.7219	14.3282	-6.75594	28.34298	160.60133	0.10193	9.81091	35.64431	32.35497	13.53867	0.31639	 	784388.2173	 	4.15747E-6	 	10254.687	28.973	 
390.0	1.0	0.0	1.7227	14.3216	-6.7989	28.29722	160.37157	0.10131	9.87074	35.8161	32.44854	13.60756	0.31604	 	928788.6391	 	3.48483E-6	 	10110.103	28.9168	 
385.0	1.0	0.0	1.72349	14.31502	-6.84174	28.25147	160.14193	0.10069	9.93148	35.987	32.54094	13.67616	0.31568	 	1102599.42	 	2.91336E-6	 	9965.8	28.8606	 
380.0	1.0	0.0	1.72428	14.30845	-6.88445	28.20572	159.91242	0.10007	9.99317	36.157	32.63217	13.74446	0.31533	 	1312378.976	 	2.42907E-6	 	9821.776	28.8048	 
375.0	1.0	0.0	1.72507	14.30191	-6.92704	28.15997	159.68304	0.099445	10.05581	36.32611	32.72226	13.81245	0.31498	 	1566274.243	 	2.01974E-6	 	9678.029	28.7494	 
370.0	1.0	0.0	1.72586	14.29538	-6.96951	28.11422	159.45379	0.0988197	10.11944	36.49433	32.8112	13.88013	0.31462	 	1874435.943	 	1.67467E-6	 	9534.558	28.6942	 
365.0	1.0	0.0	1.72664	14.28888	-7.01185	28.06846	159.22468	0.0981925	10.18407	36.66165	32.899	13.94752	0.31427	 	2249550.399	 	1.38457E-6	 	9391.361	28.6394	 
360.0	1.0	0.0	1.72743	14.28239	-7.05407	28.02271	158.99571	0.0975635	10.24974	36.82808	32.98566	14.0146	0.31392	 	2707522.89	 	1.14136E-6	 	9248.438	28.5846	 
355.0	1.0	0.0	1.72821	14.27592	-7.09616	27.97696	158.76688	0.0969325	10.31645	36.99362	33.0712	14.08137	0.31357	 	3268358.684	 	9.38038E-7	 	9105.787	28.5302	 
350.0	1.0	0.0	1.72899	14.26947	-7.13813	27.93121	158.5382	0.0962997	10.38425	37.15826	33.15562	14.14784	0.31321	 	3957302.883	 	7.68564E-7	 	8963.407	28.476	 
345.0	1.0	0.0	1.72977	14.26304	-7.17997	27.88546	158.30967	0.0956649	10.45316	37.32201	33.23892	14.21401	0.31286	 	4806320.338	 	6.27723E-7	 	8821.296	28.4222	 
340.0	1.0	0.0	1.73055	14.25663	-7.2217	27.83971	158.08129	0.0950282	10.5232	37.48487	33.32112	14.27987	0.31251	 	5856024.049	 	5.11035E-7	 	8679.453	28.3686	 
335.0	1.0	0.0	1.73132	14.25024	-7.26329	27.79396	157.85307	0.0943895	10.5944	37.64683	33.40221	14.34543	0.31215	 	7158197.295	 	4.14662E-7	 	8537.877	28.3152	 
330.0	1.0	0.0	1.7321	14.24387	-7.30476	27.74821	157.62502	0.0937489	10.66679	37.80789	33.48221	14.41068	0.3118	 	8779104.805	 	3.35322E-7	 	8396.567	28.262	 
325.0	1.0	0.0	1.73287	14.23751	-7.34611	27.70246	157.39713	0.0931064	10.7404	37.96807	33.56112	14.47563	0.31145	 	1.080385671E7	 	2.7022E-7	 	8255.521	28.2092	 
320.0	1.0	0.0	1.73364	14.23118	-7.38734	27.65672	157.16941	0.0924619	10.81527	38.12735	33.63895	14.54027	0.3111	 	1.334218283E7	 	2.16982E-7	 	8114.738	28.1566	 
315.0	1.0	0.0	1.73441	14.22486	-7.42844	27.61097	156.94187	0.0918154	10.89142	38.28574	33.71569	14.6046	0.31074	 	1.653610431E7	 	1.73597E-7	 	7974.218	28.104	 
310.0	1.0	0.0	1.73518	14.21857	-7.46942	27.56522	156.71451	0.0911669	10.96889	38.44323	33.79137	14.66863	0.31039	 	2.057016823E7	 	1.38366E-7	 	7833.958	28.052	 
305.0	1.0	0.0	1.73595	14.21229	-7.51027	27.51947	156.48733	0.0905164	11.04772	38.59983	33.86599	14.73235	0.31004	 	2.568516009E7	 	1.09861E-7	 	7693.959	27.9998	 
300.0	1.0	0.0	1.73671	14.20603	-7.551	27.47372	156.26034	0.089864	11.12793	38.75554	33.93954	14.79577	0.30968	 	3.219655601E7	 	8.68852E-8	 	7554.219	27.948	 
295.0	1.0	0.0	1.73748	14.19979	-7.5916	27.42798	156.03355	0.0892095	11.20957	38.91035	34.01204	14.85887	0.30933	 	4.051946431E7	 	6.84362E-8	 	7414.737	27.8964	 
290.0	1.0	0.0	1.73824	14.19357	-7.63208	27.38223	155.80696	0.088553	11.29267	39.06428	34.0835	14.92167	0.30898	 	5.120249332E7	 	5.36809E-8	 	7275.512	27.845	 
285.0	1.0	0.0	1.739	14.18737	-7.67244	27.33648	155.58058	0.0878945	11.37728	39.2173	34.15391	14.98417	0.30862	 	6.497395666E7	 	4.19274E-8	 	7136.543	27.7938	 
280.0	1.0	0.0	1.73976	14.18119	-7.71267	27.29074	155.35441	0.0872339	11.46343	39.36944	34.22329	15.04635	0.30827	 	8.280521417E7	 	3.26041E-8	 	6997.83	27.7426	 
275.0	1.0	0.0	1.74051	14.17502	-7.75278	27.24499	155.12845	0.0865713	11.55117	39.52068	34.29163	15.10823	0.30792	 	1.059979332E8	 	2.524E-8	 	6859.371	27.6918	 
270.0	1.0	0.0	1.74127	14.16888	-7.79276	27.19925	154.90272	0.0859067	11.64054	39.67103	34.35895	15.1698	0.30757	 	1.36304914E8	 	1.94489E-8	 	6721.166	27.641	 
265.0	1.0	0.0	1.74202	14.16276	-7.83262	27.1535	154.67723	0.0852399	11.73159	39.82048	34.42526	15.23106	0.30721	 	1.760982601E8	 	1.49154E-8	 	6583.214	27.5904	 
260.0	1.0	0.0	1.74277	14.15665	-7.87235	27.10776	154.45196	0.0845711	11.82437	39.96904	34.49055	15.29201	0.30686	 	2.286046979E8	 	1.13828E-8	 	6445.514	27.54	 
255.0	1.0	0.0	1.74352	14.15056	-7.91197	27.06201	154.22695	0.0839002	11.91892	40.11671	34.55483	15.35266	0.30651	 	2.982366624E8	 	8.64337E-9	 	6308.067	27.4894	 
250.0	1.0	0.0	1.74427	14.14449	-7.95145	27.01627	154.00218	0.0832272	12.0153	40.26349	34.61812	15.41299	0.30615	 	3.910607499E8	 	6.52933E-9	 	6170.87	27.4394	 
245.0	1.0	0.0	1.74501	14.13845	-7.99082	26.97052	153.77768	0.0825521	12.11356	40.40937	34.6804	15.47302	0.3058	 	5.154643633E8	 	4.90618E-9	 	6033.924	27.3892	 
240.0	1.0	0.0	1.74576	14.13242	-8.03006	26.92478	153.55344	0.0818749	12.21375	40.55436	34.7417	15.53273	0.30545	 	6.831100453E8	 	3.6664E-9	 	5897.228	27.3392	 
235.0	1.0	0.0	1.7465	14.12641	-8.06917	26.87904	153.32947	0.0811956	12.31594	40.69846	34.80201	15.59214	0.3051	 	9.103099939E8	 	2.72452E-9	 	5760.783	27.289	 
230.0	1.0	0.0	1.74724	14.12041	-8.10816	26.83329	153.10579	0.0805141	12.42018	40.84166	34.86133	15.65124	0.30474	 	1.220018198E9	 	2.01288E-9	 	5624.586	27.2394	 
225.0	1.0	0.0	1.74798	14.11444	-8.14703	26.78755	152.8824	0.0798305	12.52654	40.98397	34.91969	15.71002	0.30439	 	1.644736357E9	 	1.47826E-9	 	5488.639	27.1894	 
220.0	1.0	0.0	1.74872	14.10849	-8.18577	26.74181	152.65932	0.0791447	12.63509	41.12539	34.97707	15.7685	0.30404	 	2.230780894E9	 	1.07897E-9	 	5352.942	27.1394	 
215.0	1.0	0.0	1.74946	14.10255	-8.22439	26.69607	152.43654	0.0784567	12.74588	41.26591	35.03349	15.82666	0.30368	 	3.044591384E9	 	7.82548E-10	 	5217.493	27.0898	 
210.0	1.0	0.0	1.75019	14.09664	-8.26289	26.65032	152.21408	0.0777666	12.85899	41.40554	35.08895	15.88451	0.30333	 	4.18212267E9	 	5.63861E-10	 	5082.293	27.04	 
205.0	1.0	0.0	1.75092	14.09074	-8.30126	26.60458	151.99196	0.0770743	12.97449	41.54428	35.14346	15.94206	0.30298	 	5.782929244E9	 	4.03555E-10	 	4947.343	26.99	 
200.0	1.0	0.0	1.75165	14.08487	-8.3395	26.55884	151.77018	0.0763798	13.09247	41.68213	35.19702	15.99929	0.30262	 	8.051443637E9	 	2.86822E-10	 	4812.641	26.9404	 
195.0	1.0	0.0	1.75238	14.07901	-8.37763	26.5131	151.54875	0.0756831	13.21299	41.81908	35.24963	16.0562	0.30227	 	1.12894E10	 	2.02396E-10	 	4678.19	26.8902	 
190.0	1.0	0.0	1.75311	14.07317	-8.41562	26.46736	151.32768	0.0749841	13.33615	41.95514	35.30131	16.11281	0.30192	 	1.5945399999999998E10	 	1.41766E-10	 	4543.988	26.8404	 
185.0	1.0	0.0	1.75383	14.06735	-8.4535	26.42162	151.10699	0.074283	13.46204	42.09031	35.35205	16.1691	0.30157	 	2.26921E10	 	9.85418E-11	 	4410.036	26.7904	 
180.0	1.0	0.0	1.75456	14.06155	-8.49125	26.37588	150.88669	0.0735795	13.59073	42.22459	35.40186	16.22509	0.30121	 	3.2545799999999996E10	 	6.7957E-11	 	4276.336	26.74	 
175.0	1.0	0.0	1.75528	14.05577	-8.52888	26.33014	150.6668	0.0728739	13.72234	42.35797	35.45075	16.28076	0.30086	 	4.705539999999999E10	 	4.64837E-11	 	4142.887	26.6898	 
170.0	1.0	0.0	1.756	14.05	-8.56638	26.2844	150.44732	0.072166	13.85695	42.49046	35.49873	16.33611	0.30051	 	6.860219999999999E10	 	3.15282E-11	 	4009.69	26.6394	 
165.0	1.0	0.0	1.75672	14.04426	-8.60376	26.23866	150.22827	0.0714558	13.99467	42.62205	35.54578	16.39115	0.30015	 	1.0088E11	 	2.11986E-11	 	3876.747	26.5886	 
