T (C)	Fraction solid (wt)-TOTAL	Fraction liquid (wt)-LIQUID	Density (g/(cm)^3)-TOTAL	Molar volume (cm^3)-TOTAL	Volume change (%)-  	Average expansion coeff. (10e-6 1/K)-  	Thermal conductivity (W/(m*K))-TOTAL	Electrical resistivity (10e-6 Ohm*m)-TOTAL	Electrical conductivity (10e6 1/(Ohm*m))-TOTAL	Young's modulus (GPa)-TOTAL	Bulk modulus (GPa)-TOTAL	Shear modulus(GPa)-TOTAL	Poisson's ratio-TOTAL	Liquid viscosity (mPa s)-  	Total viscosity (mPa s)-  	Liquid diffusivity (10e-9 (m^2)/s)-  	Total diffusivity (10e-9 (m^2)/s)-  	Surface Tension (mN/m)-  	Enthalpy (J/mole)-TOTAL	Specific heat (J/(mole K))-TOTAL	Latent heat (J/mole)-TOTAL
700.0	0.0	1.0	1.60524	15.38425	0.0	52.55448	81.37996	0.29297	3.41328	0.0	24.70937	0.0	0.5	1.26057	1.26057	3.76789	3.76789	542.70222	28173.416	 	0.0
695.0	0.0	1.0	1.60652	15.37201	-0.0795701	52.50867	81.03317	0.29272	3.41629	0.0	24.77906	0.0	0.5	1.27552	1.27552	3.70461	3.70461	544.44721	28001.728	34.3376	0.0
690.0	0.0	1.0	1.60779	15.35982	-0.15882	52.46397	80.68637	0.29246	3.41932	0.0	24.84875	0.0	0.5	1.2908	1.2908	3.64185	3.64185	546.19218	27830.044	34.3368	0.0
685.0	0.0	1.0	1.60906	15.34768	-0.23774	52.42039	80.33958	0.29219	3.42239	0.0	24.91843	0.0	0.5	1.30642	1.30642	3.57962	3.57962	547.93712	27658.364	34.336	0.0
680.0	0.0	1.0	1.61033	15.33559	-0.31634	52.37797	79.99278	0.29193	3.4255	0.0	24.98812	0.0	0.5	1.3224	1.3224	3.51791	3.51791	549.68202	27486.688	34.3352	0.0
675.0	0.0	1.0	1.6116	15.32354	-0.39462	52.33672	79.64599	0.29166	3.42863	0.0	25.05781	0.0	0.5	1.33875	1.33875	3.45672	3.45672	551.42689	27315.016	34.3344	0.0
670.0	0.0	1.0	1.61286	15.31155	-0.47258	52.29668	79.29919	0.29139	3.4318	0.0	25.12749	0.0	0.5	1.35547	1.35547	3.39607	3.39607	553.17174	27143.347	34.3338	0.0
669.49	0.0	1.0	1.61299	15.31033	-0.48054	52.29265	79.26368	0.29136	3.43213	0.0	25.13463	0.0	0.5	1.35721	1.35721	3.38988	3.38988	553.35041	27125.769	34.3327	0.0
665.0	5.3E-4	0.99947	1.61414	15.29947	-0.55109	52.25282	78.94911	0.29113	3.43486	2.91017E-14	25.18795	9.70073E-15	0.49998	1.37163	1.37163	3.33828	3.33828	554.89296	26962.96	36.2764	8.723
660.0	0.00111	0.99889	1.61542	15.28739	-0.62965	52.20798	78.59851	0.29087	3.43793	5.62185E-13	25.24741	1.87401E-13	0.49995	1.38806	1.38806	3.28118	3.28118	556.61211	26781.75	36.242	18.273
655.0	0.00168	0.99832	1.61669	15.27527	-0.70839	52.16139	78.2476	0.29061	3.44102	2.956E-12	25.30689	9.85385E-13	0.49992	1.40489	1.40489	3.2245	3.2245	558.3319	26600.718	36.2064	27.647
650.0	0.00224	0.99776	1.61797	15.26329	-0.78631	52.11887	77.89714	0.29035	3.44416	9.35794E-12	25.36663	3.11953E-12	0.4999	1.42214	1.42214	3.16824	3.16824	560.05232	26419.864	36.1708	36.849
648.99	0.00236	0.99764	1.61822	15.26087	-0.80201	52.11044	77.82627	0.29029	3.44479	1.13762E-11	25.37848	3.79233E-12	0.49989	1.42567	1.42768	3.15693	3.15249	560.39963	26383.35	 	38.713
648.99	0.00236	0.99764	1.61822	15.26087	-0.80201	52.11044	77.82627	0.29029	3.44479	1.13762E-11	25.37848	3.79233E-12	0.49989	1.42567	1.42768	3.15693	3.15249	560.39963	26383.35	 	38.713
645.0	0.71731	0.28269	1.66281	14.85129	-3.46435	36.60887	131.87409	0.17058	5.86246	6.60798	25.8345	2.39056	0.3821	1.44778	471.25776	3.09526	0.00950915	562.19308	20243.498	1235.27	6041.896
640.0	0.85147	0.14853	1.67205	14.7682	-4.00444	33.6676	150.12186	0.14903	6.7102	13.5072	26.06252	4.96945	0.35902	1.47762	1019.04011	3.01625	0.00437358	564.47424	18972.547	254.19	7142.221
635.0	0.89934	0.10066	1.67583	14.73381	-4.228	32.59194	157.25147	0.14149	7.06759	17.07138	26.24593	6.32033	0.35051	1.50842	1386.54256	2.93847	0.00319677	566.76001	18419.168	110.676	7525.658
630.93	0.9203	0.0797014	1.67776	14.71598	-4.34391	32.10524	160.40686	0.13809	7.24184	18.90119	26.38503	7.01788	0.34665	1.53402	1636.63688	2.8765	0.00269614	568.61884	18117.668	 	7689.399
630.0	0.92819	0.0718095	1.67834	14.71036	-4.38043	31.93211	161.56752	0.13695	7.30177	19.61119	26.42403	7.28916	0.34523	1.54025	1722.32022	2.8619	0.00255937	569.05159	18018.461	80.1414	7757.098
625.0	0.95359	0.0464051	1.68048	14.68927	-4.51751	31.35557	165.32528	0.1331	7.51319	22.10815	26.61196	8.24605	0.34053	1.57314	2102.57395	2.78656	0.0020849	571.35899	17636.414	76.4094	7970.541
624.11	0.95638	0.0436249	1.68076	14.68645	-4.53584	31.28912	165.72871	0.13264	7.53896	22.40813	26.64301	8.3613	0.33999	1.57898	2162.32957	2.77352	0.00202528	571.76776	17583.898	 	7993.244
620.0	0.96612	0.0338769	1.68186	14.67502	-4.61011	31.04511	167.09674	0.13096	7.6362	23.51983	26.78175	8.78895	0.33803	1.60426	2430.74908	2.7173	0.00179337	573.61651	17367.65	53.7528	8071.354
615.0	0.9736	0.0264045	1.68295	14.66349	-4.68508	30.83953	168.0713	0.12947	7.72398	24.47163	26.94403	9.15579	0.3364	1.63551	2754.06473	2.65046	0.00157398	575.86361	17143.711	44.7878	8127.986
610.0	0.97857	0.0214334	1.6839	14.65331	-4.75128	30.68579	168.64823	0.1283	7.79437	25.18608	27.10198	9.4316	0.3352	1.66738	3091.56004	2.58515	0.00139426	578.11082	16942.147	40.3128	8162.877
605.0	0.98212	0.0178751	1.68476	14.6439	-4.81243	30.56147	168.99944	0.12731	7.85508	25.76281	27.25683	9.65454	0.33423	1.69994	3454.13146	2.52128	0.00124084	580.3582	16753.345	37.7604	8185.63
600.0	0.98481	0.0151932	1.68559	14.63498	-4.87039	30.45549	169.20982	0.12642	7.90989	26.2522	27.40921	9.84394	0.33342	1.73323	3849.71029	2.45878	0.001107	582.60587	16572.581	36.1528	8200.96
595.0	0.98691	0.0130935	1.68638	14.6264	-4.92617	30.36174	169.32642	0.12561	7.96093	26.68256	27.55945	10.01068	0.3327	1.76729	4285.27807	2.39758	9.88786E-4	584.85397	16397.261	35.064	8211.452
590.0	0.9886	0.0113986	1.68715	14.61806	-4.98039	30.27648	169.37747	0.12485	8.00946	27.07112	27.70775	10.16137	0.33206	1.80218	4767.74873	2.33762	8.83608E-4	587.10268	16225.843	34.2836	8218.638
585.0	0.99	0.0100007	1.68791	14.6099	-5.03342	30.19756	169.38074	0.12413	8.05628	27.42871	27.85424	10.3002	0.33147	1.83795	5304.37724	2.27885	7.89615E-4	589.35209	16057.351	33.6984	8223.487
581.97	0.99074	0.0092647	1.68836	14.60502	-5.06513	30.152	169.36459	0.1237	8.08408	27.63376	27.94225	10.37986	0.33112	1.86009	5659.57502	2.24377	7.37443E-4	590.71688	15956.302	 	8225.563
580.0	0.99453	0.00547481	1.68879	14.601	-5.0913	30.08498	169.04549	0.12365	8.08746	28.09594	27.98918	10.56015	0.33028	1.88345	5969.15699	2.21085	6.97588E-4	591.63424	15865.299	38.4104	8252.474
577.46	0.99772	0.00227837	1.68929	14.59644	-5.12093	30.02525	168.92717	0.12337	8.10588	28.52508	28.05224	10.72766	0.32951	1.91443	6358.21284	2.16861	6.52957E-4	592.81544	15761.254	 	8274.061
577.46	0.99772	0.00227837	1.68929	14.59644	-5.12093	30.02524	168.9271	0.12337	8.10589	28.5251	28.05225	10.72767	0.32951	1.91443	6358.26547	2.1686	6.52951E-4	592.81563	15761.238	 	8274.064
575.0	1.0	0.0	1.68974	14.59232	-5.14769	29.98038	168.83246	0.12308	8.12488	28.85968	28.11438	10.85836	0.32892	 	6743.64737	 	6.13853E-4	 	15666.417	39.7764	8288.863
570.0	1.0	0.0	1.69058	14.58503	-5.19509	29.93465	168.60161	0.12252	8.16189	29.06328	28.25458	10.93786	0.32856	 	7487.97494	 	5.49575E-4	 	15468.541	39.5752	 
565.0	1.0	0.0	1.69143	14.57775	-5.24237	29.88892	168.37081	0.12196	8.19934	29.26599	28.39333	11.01707	0.32821	 	8324.84989	 	4.91396E-4	 	15313.157	31.0768	 
560.0	1.0	0.0	1.69227	14.5705	-5.28952	29.84318	168.14006	0.1214	8.23724	29.4678	28.53065	11.09598	0.32786	 	9267.03292	 	4.38803E-4	 	15158.112	31.009	 
555.0	1.0	0.0	1.69311	14.56327	-5.33656	29.79745	167.90936	0.12084	8.27561	29.66871	28.66655	11.1746	0.32751	 	10329.21386	 	3.91317E-4	 	15003.404	30.9416	 
550.0	1.0	0.0	1.69395	14.55605	-5.38346	29.75172	167.67871	0.12027	8.31444	29.86874	28.80103	11.25292	0.32715	 	11528.32861	 	3.48497E-4	 	14849.031	30.8746	 
545.0	1.0	0.0	1.69479	14.54885	-5.43025	29.70599	167.44812	0.11971	8.35375	30.06787	28.93411	11.33095	0.3268	 	12883.93239	 	3.09935E-4	 	14694.991	30.808	 
540.0	1.0	0.0	1.69562	14.54167	-5.4769	29.66025	167.21759	0.11914	8.39354	30.2661	29.06578	11.40868	0.32645	 	14418.63982	 	2.75254E-4	 	14541.282	30.7418	 
535.0	1.0	0.0	1.69646	14.53451	-5.52344	29.61452	166.98711	0.11857	8.43383	30.46344	29.19607	11.48612	0.3261	 	16158.64485	 	2.44103E-4	 	14387.904	30.6756	 
530.0	1.0	0.0	1.69729	14.52737	-5.56985	29.56879	166.7567	0.118	8.47463	30.65989	29.32497	11.56326	0.32575	 	18134.33611	 	2.16163E-4	 	14234.853	30.6102	 
525.0	1.0	0.0	1.69812	14.52025	-5.61614	29.52306	166.52634	0.11743	8.51593	30.85545	29.45251	11.6401	0.32539	 	20381.02616	 	1.91137E-4	 	14082.128	30.545	 
520.0	1.0	0.0	1.69895	14.51315	-5.6623	29.47733	166.29604	0.11685	8.55777	31.05011	29.57868	11.71665	0.32504	 	22939.81772	 	1.68753E-4	 	13929.727	30.4802	 
515.0	1.0	0.0	1.69978	14.50607	-5.70834	29.4316	166.06581	0.11628	8.60013	31.24388	29.70349	11.7929	0.32469	 	25858.63412	 	1.48761E-4	 	13777.649	30.4156	 
510.0	1.0	0.0	1.70061	14.49901	-5.75425	29.38587	165.83564	0.1157	8.64305	31.43676	29.82696	11.86886	0.32434	 	29193.4475	 	1.30932E-4	 	13625.892	30.3514	 
505.0	1.0	0.0	1.70144	14.49196	-5.80004	29.34013	165.60553	0.11512	8.68651	31.62874	29.94908	11.94451	0.32399	 	33009.74546	 	1.15056E-4	 	13474.454	30.2876	 
500.0	1.0	0.0	1.70226	14.48494	-5.84571	29.2944	165.37549	0.11454	8.73054	31.81983	30.06988	12.01988	0.32363	 	37384.28583	 	1.0094E-4	 	13323.333	30.2242	 
495.0	1.0	0.0	1.70309	14.47793	-5.89125	29.24867	165.14552	0.11396	8.77515	32.01003	30.18935	12.09494	0.32328	 	42407.20016	 	8.84083E-5	 	13172.527	30.1612	 
490.0	1.0	0.0	1.70391	14.47094	-5.93667	29.20294	164.91562	0.11337	8.82035	32.19934	30.30751	12.16971	0.32293	 	48184.52028	 	7.73017E-5	 	13022.036	30.0982	 
485.0	1.0	0.0	1.70473	14.46397	-5.98197	29.15721	164.68579	0.11279	8.86615	32.38775	30.42436	12.24418	0.32258	 	54841.2192	 	6.74737E-5	 	12871.856	30.036	 
480.0	1.0	0.0	1.70555	14.45702	-6.02714	29.11148	164.45604	0.1122	8.91256	32.57527	30.53991	12.31835	0.32223	 	62524.87849	 	5.87916E-5	 	12721.987	29.9738	 
475.0	1.0	0.0	1.70637	14.45009	-6.07219	29.06575	164.22636	0.11161	8.95959	32.7619	30.65417	12.39222	0.32187	 	71410.12048	 	5.11347E-5	 	12572.426	29.9122	 
470.0	1.0	0.0	1.70719	14.44318	-6.11711	29.02002	163.99675	0.11102	9.00726	32.94763	30.76714	12.46579	0.32152	 	81703.97628	 	4.43936E-5	 	12423.173	29.8506	 
465.0	1.0	0.0	1.708	14.43629	-6.16191	28.97429	163.76723	0.11043	9.05558	33.13248	30.87884	12.53907	0.32117	 	93652.40126	 	3.84691E-5	 	12274.225	29.7896	 
460.0	1.0	0.0	1.70881	14.42942	-6.20658	28.92857	163.53778	0.10984	9.10456	33.31643	30.98927	12.61205	0.32082	 	107548.2007	 	3.32718E-5	 	12125.58	29.729	 
455.0	1.0	0.0	1.70963	14.42256	-6.25113	28.88284	163.30842	0.10924	9.15423	33.49949	31.09844	12.68473	0.32047	 	123740.6929	 	2.87207E-5	 	11977.238	29.6684	 
450.0	1.0	0.0	1.71044	14.41573	-6.29556	28.83711	163.07914	0.10864	9.20458	33.68165	31.20635	12.75711	0.32011	 	142647.5173	 	2.47429E-5	 	11829.196	29.6084	 
445.0	1.0	0.0	1.71125	14.40891	-6.33986	28.79138	162.84994	0.10804	9.25564	33.86293	31.31302	12.82919	0.31976	 	164769.0973	 	2.12729E-5	 	11681.452	29.5488	 
440.0	1.0	0.0	1.71205	14.40212	-6.38404	28.74565	162.62084	0.10744	9.30742	34.04331	31.41845	12.90097	0.31941	 	190706.3987	 	1.82517E-5	 	11534.006	29.4892	 
435.0	1.0	0.0	1.71286	14.39534	-6.42809	28.69992	162.39182	0.10684	9.35993	34.2228	31.52265	12.97245	0.31906	 	221182.7849	 	1.56265E-5	 	11386.855	29.4302	 
430.0	1.0	0.0	1.71366	14.38858	-6.47203	28.65419	162.1629	0.10623	9.4132	34.4014	31.62562	13.04363	0.31871	 	257070.9836	 	1.335E-5	 	11239.998	29.3714	 
425.0	1.0	0.0	1.71447	14.38184	-6.51583	28.60847	161.93407	0.10563	9.46724	34.57911	31.72738	13.11451	0.31835	 	299426.4426	 	1.13801E-5	 	11093.433	29.313	 
420.0	1.0	0.0	1.71527	14.37512	-6.55951	28.56274	161.70534	0.10502	9.52206	34.75593	31.82792	13.18509	0.318	 	349528.6964	 	9.67901E-6	 	10947.159	29.2548	 
415.0	1.0	0.0	1.71607	14.36842	-6.60307	28.51701	161.4767	0.10441	9.57769	34.93185	31.92727	13.25537	0.31765	 	408932.8026	 	8.2133E-6	 	10801.175	29.1968	 
410.0	1.0	0.0	1.71687	14.36174	-6.64651	28.47128	161.24817	0.1038	9.63413	35.10688	32.02541	13.32535	0.3173	 	479533.47	 	6.95319E-6	 	10655.478	29.1394	 
405.0	1.0	0.0	1.71766	14.35508	-6.68982	28.42556	161.01974	0.10318	9.69142	35.28103	32.12237	13.39503	0.31694	 	563645.2317	 	5.87228E-6	 	10510.067	29.0822	 
400.0	1.0	0.0	1.71846	14.34843	-6.73301	28.37983	160.79142	0.10257	9.74956	35.45427	32.21814	13.46441	0.31659	 	664102.9562	 	4.94724E-6	 	10364.94	29.0254	 
395.0	1.0	0.0	1.71925	14.34181	-6.77607	28.3341	160.56321	0.10195	9.80858	35.62663	32.31274	13.53348	0.31624	 	784388.2173	 	4.15747E-6	 	10220.097	28.9686	 
390.0	1.0	0.0	1.72005	14.3352	-6.81901	28.28837	160.33511	0.10133	9.86849	35.7981	32.40617	13.60225	0.31589	 	928788.6391	 	3.48483E-6	 	10075.535	28.9124	 
385.0	1.0	0.0	1.72084	14.32861	-6.86182	28.24265	160.10713	0.10071	9.92932	35.96868	32.49844	13.67073	0.31554	 	1102599.42	 	2.91336E-6	 	9931.253	28.8564	 
380.0	1.0	0.0	1.72162	14.32205	-6.90451	28.19692	159.87926	0.10009	9.9911	36.13836	32.58956	13.7389	0.31518	 	1312378.976	 	2.42907E-6	 	9787.25	28.8006	 
375.0	1.0	0.0	1.72241	14.3155	-6.94708	28.15119	159.65152	0.0994646	10.05383	36.30716	32.67952	13.80676	0.31483	 	1566274.243	 	2.01974E-6	 	9643.525	28.745	 
370.0	1.0	0.0	1.7232	14.30897	-6.98952	28.10547	159.42389	0.0988382	10.11754	36.47506	32.76835	13.87433	0.31448	 	1874435.943	 	1.67467E-6	 	9500.075	28.69	 
365.0	1.0	0.0	1.72398	14.30246	-7.03184	28.05974	159.1964	0.09821	10.18226	36.64207	32.85604	13.94159	0.31413	 	2249550.399	 	1.38457E-6	 	9356.9	28.635	 
360.0	1.0	0.0	1.72477	14.29597	-7.07403	28.01402	158.96904	0.0975799	10.24802	36.80819	32.9426	14.00855	0.31378	 	2707522.89	 	1.14136E-6	 	9213.998	28.5804	 
355.0	1.0	0.0	1.72555	14.28949	-7.1161	27.96829	158.74181	0.0969478	10.31483	36.97342	33.02803	14.0752	0.31342	 	3268358.684	 	9.38038E-7	 	9071.368	28.526	 
350.0	1.0	0.0	1.72633	14.28304	-7.15805	27.92257	158.51472	0.0963139	10.38271	37.13776	33.11235	14.14156	0.31307	 	3957302.883	 	7.68564E-7	 	8929.008	28.472	 
345.0	1.0	0.0	1.7271	14.27661	-7.19987	27.87684	158.28776	0.0956781	10.45171	37.30121	33.19557	14.2076	0.31272	 	4806320.338	 	6.27723E-7	 	8786.917	28.4182	 
340.0	1.0	0.0	1.72788	14.27019	-7.24157	27.83111	158.06096	0.0950404	10.52184	37.46376	33.27767	14.27335	0.31237	 	5856024.049	 	5.11035E-7	 	8645.095	28.3644	 
335.0	1.0	0.0	1.72866	14.2638	-7.28315	27.78539	157.8343	0.0944007	10.59314	37.62543	33.35868	14.33879	0.31202	 	7158197.295	 	4.14662E-7	 	8503.539	28.3112	 
330.0	1.0	0.0	1.72943	14.25742	-7.3246	27.73967	157.6078	0.0937592	10.66562	37.78621	33.4386	14.40392	0.31166	 	8779104.805	 	3.35322E-7	 	8362.248	28.2582	 
325.0	1.0	0.0	1.7302	14.25106	-7.36592	27.69394	157.38145	0.0931156	10.73933	37.94609	33.51744	14.46875	0.31131	 	1.080385671E7	 	2.7022E-7	 	8221.222	28.2052	 
320.0	1.0	0.0	1.73097	14.24472	-7.40713	27.64822	157.15526	0.0924702	10.8143	38.10509	33.59519	14.53328	0.31096	 	1.334218283E7	 	2.16982E-7	 	8080.459	28.1526	 
315.0	1.0	0.0	1.73174	14.2384	-7.44821	27.60249	156.92924	0.0918228	10.89055	38.26319	33.67188	14.5975	0.31061	 	1.653610431E7	 	1.73597E-7	 	7939.959	28.1	 
310.0	1.0	0.0	1.73251	14.2321	-7.48916	27.55677	156.7034	0.0911734	10.96812	38.4204	33.74749	14.66142	0.31026	 	2.057016823E7	 	1.38366E-7	 	7799.719	28.048	 
305.0	1.0	0.0	1.73327	14.22582	-7.52999	27.51104	156.47772	0.090522	11.04704	38.57673	33.82205	14.72503	0.3099	 	2.568516009E7	 	1.09861E-7	 	7659.739	27.996	 
300.0	1.0	0.0	1.73403	14.21956	-7.5707	27.46532	156.25223	0.0898686	11.12735	38.73216	33.89555	14.78833	0.30955	 	3.219655601E7	 	8.68852E-8	 	7520.018	27.9442	 
295.0	1.0	0.0	1.7348	14.21332	-7.61128	27.4196	156.02692	0.0892133	11.20909	38.8867	33.968	14.85133	0.3092	 	4.051946431E7	 	6.84362E-8	 	7380.555	27.8926	 
290.0	1.0	0.0	1.73556	14.20709	-7.65174	27.37387	155.8018	0.0885559	11.2923	39.04035	34.03941	14.91402	0.30885	 	5.120249332E7	 	5.36809E-8	 	7241.348	27.8414	 
285.0	1.0	0.0	1.73631	14.20089	-7.69207	27.32815	155.57688	0.0878966	11.37701	39.19311	34.10978	14.97641	0.3085	 	6.497395666E7	 	4.19274E-8	 	7102.398	27.79	 
280.0	1.0	0.0	1.73707	14.1947	-7.73228	27.28243	155.35216	0.0872352	11.46326	39.34498	34.17912	15.03848	0.30814	 	8.280521417E7	 	3.26041E-8	 	6963.703	27.739	 
275.0	1.0	0.0	1.73783	14.18853	-7.77237	27.2367	155.12765	0.0865718	11.55111	39.49596	34.24743	15.10026	0.30779	 	1.059979332E8	 	2.524E-8	 	6825.263	27.688	 
270.0	1.0	0.0	1.73858	14.18239	-7.81233	27.19098	154.90335	0.0859063	11.64059	39.64605	34.31472	15.16172	0.30744	 	1.36304914E8	 	1.94489E-8	 	6687.076	27.6374	 
265.0	1.0	0.0	1.73933	14.17626	-7.85217	27.14526	154.67927	0.0852388	11.73175	39.79525	34.381	15.22288	0.30709	 	1.760982601E8	 	1.49154E-8	 	6549.142	27.5868	 
260.0	1.0	0.0	1.74008	14.17015	-7.89189	27.09954	154.45542	0.0845692	11.82463	39.94356	34.44627	15.28373	0.30673	 	2.286046979E8	 	1.13828E-8	 	6411.46	27.5364	 
255.0	1.0	0.0	1.74083	14.16406	-7.93148	27.05381	154.2318	0.0838976	11.91929	40.09098	34.51053	15.34427	0.30638	 	2.982366624E8	 	8.64337E-9	 	6274.03	27.486	 
250.0	1.0	0.0	1.74158	14.15798	-7.97094	27.00809	154.00842	0.0832239	12.01579	40.23751	34.5738	15.4045	0.30603	 	3.910607499E8	 	6.52933E-9	 	6136.85	27.436	 
245.0	1.0	0.0	1.74232	14.15193	-8.01029	26.96237	153.7853	0.082548	12.11416	40.38314	34.63608	15.46443	0.30568	 	5.154643633E8	 	4.90618E-9	 	5999.921	27.3858	 
240.0	1.0	0.0	1.74306	14.1459	-8.04951	26.91665	153.56243	0.0818701	12.21447	40.52789	34.69736	15.52404	0.30533	 	6.831100453E8	 	3.6664E-9	 	5863.243	27.3356	 
235.0	1.0	0.0	1.7438	14.13988	-8.0886	26.87093	153.33982	0.0811901	12.31677	40.67175	34.75767	15.58335	0.30497	 	9.103099939E8	 	2.72452E-9	 	5726.814	27.2858	 
230.0	1.0	0.0	1.74454	14.13389	-8.12757	26.82521	153.11748	0.080508	12.42113	40.81472	34.817	15.64235	0.30462	 	1.220018198E9	 	2.01288E-9	 	5590.634	27.236	 
225.0	1.0	0.0	1.74528	14.12791	-8.16642	26.77948	152.89543	0.0798237	12.52761	40.9568	34.87536	15.70104	0.30427	 	1.644736357E9	 	1.47826E-9	 	5454.704	27.186	 
220.0	1.0	0.0	1.74602	14.12195	-8.20514	26.73376	152.67367	0.0791373	12.63627	41.09799	34.93275	15.75941	0.30392	 	2.230780894E9	 	1.07897E-9	 	5319.022	27.1364	 
215.0	1.0	0.0	1.74675	14.11602	-8.24374	26.68804	152.4522	0.0784487	12.74719	41.23828	34.98918	15.81748	0.30357	 	3.044591384E9	 	7.82548E-10	 	5183.589	27.0866	 
210.0	1.0	0.0	1.74749	14.1101	-8.28222	26.64232	152.23105	0.077758	12.86042	41.37769	35.04465	15.87524	0.30321	 	4.18212267E9	 	5.63861E-10	 	5048.405	27.0368	 
205.0	1.0	0.0	1.74822	14.1042	-8.32057	26.5966	152.01021	0.0770651	12.97605	41.51621	35.09918	15.93269	0.30286	 	5.782929244E9	 	4.03555E-10	 	4913.47	26.987	 
200.0	1.0	0.0	1.74895	14.09832	-8.35879	26.55088	151.78971	0.07637	13.09415	41.65384	35.15276	15.98983	0.30251	 	8.051443637E9	 	2.86822E-10	 	4778.784	26.9372	 
195.0	1.0	0.0	1.74967	14.09245	-8.3969	26.50516	151.56954	0.0756727	13.21481	41.79058	35.2054	16.04666	0.30216	 	1.12894E10	 	2.02396E-10	 	4644.348	26.8872	 
190.0	1.0	0.0	1.7504	14.08661	-8.43488	26.45944	151.34973	0.0749732	13.3381	41.92642	35.2571	16.10317	0.30181	 	1.5945399999999998E10	 	1.41766E-10	 	4510.161	26.8374	 
185.0	1.0	0.0	1.75112	14.08079	-8.47273	26.41372	151.13029	0.0742715	13.46411	42.06138	35.30787	16.15938	0.30145	 	2.26921E10	 	9.85418E-11	 	4376.224	26.7874	 
180.0	1.0	0.0	1.75185	14.07498	-8.51046	26.368	150.91122	0.0735676	13.59294	42.19545	35.35772	16.21527	0.3011	 	3.2545799999999996E10	 	6.7957E-11	 	4242.538	26.7372	 
175.0	1.0	0.0	1.75257	14.0692	-8.54807	26.32228	150.69255	0.0728614	13.72468	42.32863	35.40665	16.27085	0.30075	 	4.705539999999999E10	 	4.64837E-11	 	4109.103	26.687	 
170.0	1.0	0.0	1.75328	14.06343	-8.58555	26.27656	150.47428	0.072153	13.85943	42.46092	35.45466	16.32612	0.3004	 	6.860219999999999E10	 	3.15282E-11	 	3975.921	26.6364	 
165.0	1.0	0.0	1.754	14.05768	-8.62291	26.23084	150.25643	0.0714424	13.9973	42.59232	35.50176	16.38108	0.30005	 	1.0088E11	 	2.11986E-11	 	3842.991	26.586	 
