T (C)	Fraction solid (wt)-TOTAL	Fraction liquid (wt)-LIQUID	Density (g/(cm)^3)-TOTAL	Molar volume (cm^3)-TOTAL	Volume change (%)-  	Average expansion coeff. (10e-6 1/K)-  	Thermal conductivity (W/(m*K))-TOTAL	Electrical resistivity (10e-6 Ohm*m)-TOTAL	Electrical conductivity (10e6 1/(Ohm*m))-TOTAL	Young's modulus (GPa)-TOTAL	Bulk modulus (GPa)-TOTAL	Shear modulus(GPa)-TOTAL	Poisson's ratio-TOTAL	Liquid viscosity (mPa s)-  	Total viscosity (mPa s)-  	Liquid diffusivity (10e-9 (m^2)/s)-  	Total diffusivity (10e-9 (m^2)/s)-  	Surface Tension (mN/m)-  	Enthalpy (J/mole)-TOTAL	Specific heat (J/(mole K))-TOTAL	Latent heat (J/mole)-TOTAL
700.0	0.00363	0.99637	1.66993	15.36901	0.0	54.50239	81.32426	0.29317	3.41094	3.70389E-11	23.71578	1.23477E-11	0.49983	1.27821	1.27821	3.7159	3.7159	543.64768	27327.782	 	0.0
695.0	0.00377	0.99623	1.67126	15.35672	-0.0799945	54.46721	80.97506	0.29293	3.41383	4.30492E-11	23.78826	1.43514E-11	0.49982	1.29299	1.29299	3.65457	3.65457	545.38597	27153.662	34.824	1.213
690.0	0.0039	0.9961	1.67258	15.34462	-0.15868	54.43879	80.62667	0.29267	3.41679	4.97273E-11	23.86097	1.65778E-11	0.49982	1.30809	1.30809	3.59372	3.59372	547.12432	26979.52	34.8284	2.413
685.0	0.00403	0.99597	1.6739	15.33244	-0.23794	54.40673	80.27764	0.29242	3.41976	5.70755E-11	23.93347	1.90276E-11	0.49981	1.32353	1.32353	3.53334	3.53334	548.86273	26805.356	34.8328	3.599
680.0	0.00416	0.99584	1.67522	15.32047	-0.31582	54.38197	79.9295	0.29216	3.42279	6.51449E-11	24.00622	2.17178E-11	0.4998	1.33933	1.33933	3.47345	3.47345	550.6012	26631.17	34.8372	4.77
675.0	0.00429	0.99571	1.67653	15.30839	-0.39442	54.35272	79.58056	0.2919	3.42581	7.39727E-11	24.07872	2.46609E-11	0.4998	1.35548	1.35548	3.41406	3.41406	552.33974	26456.962	34.8416	5.928
670.0	0.00441	0.99559	1.67784	15.29654	-0.47158	54.33129	79.23258	0.29164	3.42892	8.35829E-11	24.1515	2.78648E-11	0.49979	1.37201	1.37201	3.35514	3.35514	554.07833	26282.733	34.8458	7.072
665.0	0.00454	0.99546	1.67914	15.28458	-0.54938	54.30584	78.88389	0.29137	3.43202	9.39913E-11	24.22403	3.13349E-11	0.49978	1.38892	1.38892	3.29672	3.29672	555.81699	26108.481	34.8504	8.201
660.0	0.00466	0.99534	1.68044	15.27282	-0.62588	54.28754	78.53601	0.2911	3.43519	1.05239E-10	24.29681	3.50849E-11	0.49978	1.40623	1.40623	3.23879	3.23879	557.55571	25934.208	34.8546	9.317
655.0	0.00478	0.99522	1.68174	15.26098	-0.70295	54.2656	78.18749	0.29084	3.43837	1.17373E-10	24.36937	3.91301E-11	0.49977	1.42395	1.42395	3.18135	3.18135	559.2945	25759.913	34.859	10.418
650.0	0.0049	0.9951	1.68304	15.24919	-0.77965	54.24551	77.83906	0.29056	3.44159	1.30369E-10	24.44193	4.34632E-11	0.49977	1.44209	1.44209	3.12441	3.12441	561.03334	25585.596	34.8634	11.506
645.0	0.00502	0.99498	1.68433	15.2376	-0.85507	54.23275	77.49141	0.29029	3.44488	1.44329E-10	24.51474	4.81171E-11	0.49976	1.46066	1.46066	3.06797	3.06797	562.77167	25411.583	34.8026	12.58
640.0	0.00514	0.99486	1.68562	15.22592	-0.93104	54.21644	77.14315	0.29001	3.44817	1.5917E-10	24.58732	5.30652E-11	0.49976	1.47969	1.47969	3.01203	3.01203	564.51067	25238.228	34.671	13.64
635.05	0.00525	0.99475	1.68689	15.21441	-1.00591	54.20242	76.79825	0.28973	3.45148	1.74871E-10	24.65925	5.83E-11	0.49975	1.49899	1.49899	2.95711	2.95711	566.2334	25067.148	34.5407	14.672
635.05	0.00527	0.99473	1.6869	15.21441	-1.00594	54.20223	76.79814	0.28973	3.45147	1.74868E-10	24.65919	5.8299E-11	0.49975	1.49899	1.50197	2.95711	2.95126	566.23352	25067.017	 	14.793
635.0	0.00693	0.99307	1.68701	15.21334	-1.0129	54.16415	76.85898	0.28949	3.45439	3.83347E-10	24.65695	1.27828E-10	0.49947	1.49921	1.50564	2.95653	2.94391	566.25215	25051.04	342.723	29.169
630.0	0.183	0.817	1.69946	15.10193	-1.73782	50.17693	86.26873	0.25649	3.89877	0.0274918	24.8415	0.00935377	0.46956	1.52618	4.74028	2.88828	0.92991	568.34313	23351.803	339.847	1557.374
625.0	0.31619	0.68381	1.70919	15.01586	-2.29779	47.14076	94.61495	0.23257	4.29977	0.26584	25.02351	0.0918932	0.44648	1.55615	30.77769	2.81698	0.14243	570.49986	22025.601	265.24	2713.157
620.0	0.41544	0.58456	1.7167	14.95001	-2.7263	44.87135	102.0736	0.21438	4.66469	0.82558	25.19965	0.28887	0.429	1.58814	96.97794	2.74487	0.0449509	572.6953	20997.692	205.582	3571.254
615.0	0.49036	0.50964	1.7226	14.89854	-3.06118	43.15081	108.48207	0.20058	4.98546	1.64811	25.37008	0.58212	0.41561	1.62157	205.44825	2.67324	0.0210994	574.9129	20184.416	162.655	4215.312
610.0	0.54818	0.45182	1.72734	14.85726	-3.32975	41.82041	114.17431	0.18951	5.27677	2.6302	25.5359	0.93592	0.40514	1.65612	352.44286	2.60273	0.0122302	577.14329	19522.235	132.436	4708.863
605.0	0.59388	0.40612	1.73126	14.8232	-3.55138	40.76668	119.07463	0.18068	5.53458	3.68717	25.69784	1.3199	0.39676	1.69164	534.39648	2.53366	0.00802032	579.3812	18967.471	110.953	5095.573
600.0	0.63074	0.36926	1.73457	14.7943	-3.73945	39.91053	123.28074	0.17352	5.76289	4.76313	25.85646	1.71348	0.3899	1.72804	749.6064	2.46616	0.00568515	581.62363	18490.662	95.3618	5404.895
595.0	0.66108	0.33892	1.73743	14.76934	-3.90182	39.20635	126.89565	0.16762	5.96604	5.82478	26.01243	2.10404	0.38419	1.76529	998.32401	2.40029	0.00424434	583.86871	18071.747	83.783	5656.882
590.0	0.68643	0.31357	1.73995	14.74731	-4.04516	38.61428	130.00833	0.16266	6.14779	6.85309	26.16589	2.48419	0.37934	1.80339	1282.22582	2.33605	0.00328555	586.11537	17696.799	74.9896	5865.451
585.0	0.70793	0.29207	1.74219	14.72758	-4.17356	38.11043	132.701	0.15844	6.31168	7.83948	26.31718	2.85036	0.37517	1.84235	1604.6309	2.27341	0.00261021	588.36287	17355.934	68.173	6040.478
580.0	0.72638	0.27362	1.74422	14.70969	-4.28992	37.67778	135.04013	0.15478	6.46058	8.78016	26.46653	3.20084	0.37154	1.88219	1969.80835	2.21232	0.00211392	590.61071	17041.983	62.7902	6189.123
575.67	0.74039	0.25961	1.74585	14.69533	-4.3834	37.34603	136.82378	0.15199	6.57934	9.55798	26.5944	3.49152	0.36874	1.91745	2325.07944	2.16061	0.00178181	592.55933	16787.506	 	6300.726
575.0	0.74954	0.25046	1.74675	14.68752	-4.43417	37.04957	137.06254	0.15161	6.59599	9.99184	26.59212	3.65459	0.36703	1.9233	2459.56726	2.15234	0.00168306	592.86231	16695.321	69.3324	6371.003
570.0	0.80251	0.19749	1.7523	14.63973	-4.74516	35.27746	138.59337	0.14905	6.70921	11.99027	26.60963	4.41779	0.35704	1.96727	3462.33085	2.09183	0.00118857	595.13794	16127.997	113.465	6774.061
565.0	0.83556	0.16444	1.75612	14.60693	-4.95855	34.14152	139.62595	0.14707	6.79952	13.56237	26.67218	5.02053	0.35069	2.01136	4434.50835	2.03385	9.22493E-4	597.41115	15717.069	82.1856	7021.229
560.0	0.8581	0.1419	1.759	14.58219	-5.11957	33.34661	140.38325	0.1454	6.87743	14.80902	26.75783	5.50008	0.34626	2.05581	5423.11339	1.97801	7.49827E-4	599.68198	15388.245	65.7648	7186.795
555.0	0.87443	0.12557	1.76131	14.5623	-5.24894	32.75773	140.97098	0.14393	6.94792	15.84757	26.85664	5.90027	0.34295	2.10079	6464.20605	1.92404	6.25289E-4	601.95058	15107.806	56.0878	7304.466
550.0	0.8868	0.1132	1.76325	14.54555	-5.35793	32.30138	141.44114	0.14258	7.01343	16.74368	26.9633	6.24591	0.34037	2.14643	7586.56041	1.87175	5.29567E-4	604.21719	14858.274	49.9064	7391.714
545.0	0.89648	0.10352	1.76494	14.53097	-5.45282	31.93653	141.82794	0.14133	7.07559	17.53858	27.07491	6.55266	0.33828	2.19288	8817.37105	1.82098	4.52877E-4	606.48194	14629.695	45.7158	7458.486
540.0	0.90426	0.0957371	1.76644	14.51793	-5.53764	31.63698	142.14904	0.14015	7.13522	18.2564	27.18961	6.82977	0.33653	2.24017	10182.21304	1.77165	3.89776E-4	608.74503	14415.987	42.7416	7510.856
535.0	0.91066	0.0893402	1.7678	14.50604	-5.61502	31.38565	142.41715	0.13903	7.1929	18.91385	27.3062	7.08365	0.33504	2.28844	11708.62648	1.72361	3.36878E-4	611.00655	14213.229	40.5516	7552.738
530.0	0.91601	0.0839887	1.76906	14.49503	-5.68665	31.17134	142.64233	0.13795	7.24913	19.52267	27.42392	7.31882	0.33373	2.3377	13426.41055	1.67685	2.9196E-4	613.26661	14018.779	38.89	7586.768
525.32	0.92029	0.0797142	1.77017	14.48535	-5.74966	30.99685	142.81925	0.13697	7.30067	20.05571	27.53462	7.5248	0.33264	2.38483	15237.49855	1.63414	2.55759E-4	615.38122	13842.632	 	7613.134
525.0	0.92056	0.0794353	1.77025	14.48469	-5.7539	30.98524	142.83103	0.13691	7.30419	20.09199	27.54221	7.53882	0.33257	2.38809	15369.48097	1.63125	2.53462E-4	615.52541	13830.671	37.6216	7614.902
520.0	0.92463	0.0753659	1.77137	14.47485	-5.81799	30.81907	143.00217	0.13589	7.35904	20.64453	27.6613	7.75239	0.33149	2.4397	17586.39795	1.58674	2.20123E-4	617.78427	13645.834	36.9674	7640.208
515.0	0.92816	0.0718397	1.77243	14.46546	-5.87909	30.67203	143.14259	0.1349	7.413	21.16512	27.78015	7.95371	0.33052	2.49252	20109.71555	1.54332	1.91289E-4	620.04175	13465.573	36.0522	7661.372
510.0	0.93125	0.068748	1.77345	14.45644	-5.93777	30.54038	143.25576	0.13394	7.46622	21.65824	27.89852	8.14452	0.32962	2.5466	22990.21733	1.50097	1.6626E-4	622.29791	13289.059	35.3028	7679.218
505.0	0.93399	0.066014	1.77444	14.44771	-5.99454	30.42078	143.34508	0.133	7.51888	22.12746	28.01625	8.32619	0.32879	2.60197	26286.88252	1.45965	1.44481E-4	624.55286	13115.662	34.6794	7694.368
500.0	0.93643	0.0635741	1.7754	14.43924	-6.04966	30.3115	143.41327	0.13208	7.57111	22.57587	28.13322	8.49992	0.32801	2.65872	30068.8416	1.41931	1.25497E-4	626.80658	12944.897	34.153	7707.301
495.0	0.93862	0.0613799	1.77633	14.43099	-6.10336	30.2111	143.46248	0.13118	7.62301	23.00555	28.24936	8.6665	0.32727	2.71689	34416.72125	1.37994	1.08934E-4	629.05907	12776.385	33.7024	7718.391
490.0	0.94061	0.0593935	1.77724	14.42291	-6.1559	30.11774	143.49422	0.1303	7.67465	23.41871	28.36456	8.82679	0.32657	2.77656	39425.68356	1.3415	9.44751E-5	631.31036	12609.822	33.3126	7727.933
485.0	0.94242	0.0575841	1.77813	14.41499	-6.20743	30.0305	143.51049	0.12943	7.72614	23.81698	28.47878	8.98142	0.3259	2.83778	45207.50401	1.30396	8.18524E-5	633.56048	12444.968	32.9708	7736.165
480.0	0.94407	0.055927	1.77901	14.40721	-6.25806	29.94863	143.51239	0.12858	7.77753	24.20172	28.59199	9.13091	0.32526	2.90065	51894.61536	1.26728	7.08347E-5	635.80937	12281.626	32.6684	7743.277
475.0	0.9456	0.0544016	1.77988	14.39953	-6.30801	29.87055	143.50117	0.12773	7.8289	24.57421	28.70411	9.27576	0.32465	2.9652	59643.38626	1.23146	6.12228E-5	638.05717	12119.634	32.3984	7749.424
470.0	0.94701	0.0529916	1.78074	14.39197	-6.35723	29.79681	143.47804	0.1269	7.8803	24.93565	28.81516	9.41642	0.32405	3.03152	68640.17739	1.19647	5.28427E-5	640.30368	11958.86	32.1548	7754.734
465.0	0.94832	0.0516825	1.78158	14.3845	-6.40584	29.72647	143.44363	0.12608	7.93178	25.28664	28.9251	9.55313	0.32347	3.0997	79105.32129	1.16228	4.55434E-5	642.54896	11799.191	31.9338	7759.313
460.0	0.94954	0.050463	1.78242	14.37711	-6.45394	29.65892	143.39942	0.12526	7.98341	25.62822	29.03394	9.68629	0.32291	3.16981	91302.62615	1.12887	3.91919E-5	644.79306	11640.535	31.7312	7763.248
455.0	0.95068	0.0493228	1.78325	14.36979	-6.50156	29.59387	143.34542	0.12445	8.0352	25.96085	29.14162	9.81607	0.32237	3.24192	105546.3174	1.09624	3.36717E-5	647.03587	11482.812	31.5446	7766.615
450.0	0.95175	0.0482547	1.78407	14.36254	-6.54873	29.53128	143.2829	0.12365	8.08723	26.2854	29.24819	9.9428	0.32183	3.31616	122213.5418	1.06434	2.88799E-5	649.27739	11325.955	31.3714	7769.475
445.0	0.95275	0.0472495	1.78488	14.35535	-6.59552	29.47049	143.26908	0.12281	8.14275	26.60218	29.35361	10.06661	0.32131	3.39257	141755.2634	1.03317	2.47265E-5	651.51766	11169.905	31.21	7771.882
440.0	0.9537	0.046304	1.7857	14.34821	-6.64196	29.41139	143.18919	0.12202	8.19527	26.91162	29.45787	10.18765	0.3208	3.4713	164714.6168	1.00271	2.11317E-5	653.75656	11014.613	31.0584	7773.88
435.0	0.95459	0.0454101	1.7865	14.34113	-6.68802	29.35426	143.10221	0.12124	8.24812	27.21419	29.561	10.30611	0.32029	3.55241	191745.9719	0.97295	1.80254E-5	655.99404	10860.033	30.916	7775.51
430.0	0.95544	0.0445646	1.7873	14.3341	-6.73378	29.29844	143.00865	0.12046	8.30134	27.51047	29.66298	10.42221	0.3198	3.63604	223640.3075	0.94386	1.53456E-5	658.23016	10706.129	30.7808	7776.805
425.0	0.95624	0.0437634	1.7881	14.32711	-6.77923	29.2441	142.90903	0.11969	8.35497	27.80035	29.76384	10.53591	0.31931	3.72231	261352.8169	0.91542	1.30379E-5	660.46481	10552.865	30.6528	7777.794
420.0	0.957	0.0430035	1.7889	14.32016	-6.82444	29.19075	142.80307	0.11892	8.409	28.08451	29.86352	10.64747	0.31884	3.81134	306046.3271	0.88764	1.10542E-5	662.69797	10400.213	30.5304	7778.502
417.89	0.95731	0.0426937	1.78923	14.31724	-6.84344	29.1688	142.75708	0.1186	8.43201	28.20291	29.90537	10.69398	0.31863	3.84984	327380.6695	0.87608	1.03023E-5	663.64196	10335.832	 	7778.722
417.89	0.95731	0.0426937	1.78923	14.31724	-6.84344	29.1688	142.75708	0.1186	8.43201	28.20291	29.90537	10.69398	0.31863	3.84984	327380.6695	0.87608	1.03023E-5	663.64196	10335.832	 	7778.722
415.0	0.9578	0.0421991	1.78969	14.31325	-6.86944	29.13792	142.69775	0.11815	8.46385	28.37419	29.96264	10.76123	0.31835	3.90328	359222.0884	0.86048	9.3499E-6	664.92985	10247.719	30.4988	7779.383
410.0	0.95855	0.0414463	1.79047	14.30638	-6.91411	29.08688	142.58556	0.11738	8.51909	28.65603	30.06055	10.87201	0.31788	3.99824	422520.3915	0.83394	7.89142E-6	667.16	10095.894	30.365	7779.93
405.0	0.95923	0.0407709	1.79126	14.29956	-6.95851	29.03709	142.46564	0.11662	8.57469	28.92699	30.15707	10.97866	0.31742	4.09636	498007.4496	0.80801	6.64625E-6	669.38855	9944.842	30.2104	7780.035
400.0	0.95986	0.0401419	1.79204	14.29277	-7.00267	28.9884	142.34049	0.11586	8.63079	29.19103	30.25238	11.0827	0.31696	4.19781	588291.5734	0.78267	5.58478E-6	671.61544	9794.395	30.0894	7779.86
395.0	0.96045	0.039547	1.79281	14.28602	-7.04661	28.94063	142.21036	0.11511	8.68743	29.44932	30.34652	11.18457	0.31652	4.30273	696553.3679	0.75791	4.68173E-6	673.8406	9644.479	29.9832	7779.476
390.0	0.96102	0.0389789	1.79359	14.2793	-7.09031	28.89389	142.07635	0.11436	8.74468	29.70297	30.43954	11.28471	0.31607	4.41132	826719.4853	0.73372	3.91508E-6	676.06397	9495.058	29.8842	7778.915
385.0	0.96156	0.0384365	1.79436	14.27261	-7.13384	28.84768	141.93821	0.1136	8.80255	29.95218	30.53143	11.38319	0.31563	4.52375	983627.6104	0.71009	3.26573E-6	678.28562	9346.109	29.7898	7778.195
380.0	0.96208	0.0379169	1.79513	14.26595	-7.17716	28.80233	141.79623	0.11285	8.86106	30.19713	30.62223	11.48007	0.3152	4.64024	1173279.118	0.687	2.71705E-6	680.50539	9197.617	29.6984	7777.328
375.0	0.96258	0.037419	1.7959	14.25932	-7.22031	28.75749	141.65122	0.1121	8.92028	30.43813	30.71192	11.57549	0.31477	4.76097	1403137.33	0.66446	2.25456E-6	682.72336	9049.568	29.6098	7776.324
370.0	0.96306	0.0369406	1.79667	14.25272	-7.26328	28.71331	141.50255	0.11136	8.9802	30.67531	30.80052	11.66948	0.31434	4.88618	1682504.841	0.64244	1.8657E-6	684.93941	8901.949	29.5238	7775.191
369.0	0.96315	0.0368477	1.79682	14.2514	-7.27183	28.70472	141.47254	0.11121	8.99227	30.72222	30.81811	11.68808	0.31425	4.91177	1745257.778	0.6381	1.79582E-6	685.38207	8872.494	 	7774.949
365.0	0.9641	0.0358992	1.79748	14.2457	-7.30895	28.63835	141.3974	0.11057	9.04383	30.98828	30.88767	11.79304	0.31384	5.00858	2026448.419	0.62186	1.537E-6	687.15611	8751.808	30.0282	7776.877
364.86	0.96413	0.0358692	1.79751	14.2455	-7.31022	28.63597	141.3946	0.11055	9.04558	30.99702	30.89002	11.79649	0.31382	5.01195	2036817.483	0.62131	1.52885E-6	687.21648	8747.719	 	7776.932
364.86	0.96413	0.0358692	1.79751	14.2455	-7.31022	28.63596	141.3946	0.11055	9.04558	30.99702	30.89002	11.79649	0.31382	5.01195	2036817.483	0.62131	1.52885E-6	687.21648	8747.719	 	7776.932
360.0	0.96582	0.0341828	1.79833	14.23847	-7.35598	28.5462	141.34261	0.10975	9.11172	31.39401	30.9743	11.95286	0.31324	5.13222	2452459.414	0.60213	1.26006E-6	689.37258	8598.92	30.5776	7781.607
355.0	0.96734	0.0326624	1.79915	14.23137	-7.40217	28.46066	141.27146	0.10894	9.17963	31.77168	31.05999	12.10187	0.31268	5.26244	2974942.253	0.58259	1.03056E-6	691.58617	8447.449	30.2942	7785.209
350.0	0.96869	0.0313135	1.79997	14.22438	-7.44765	28.38053	141.18567	0.10814	9.24766	32.12436	31.1447	12.24127	0.31213	5.39948	3617695.489	0.56328	8.40712E-7	693.79702	8297.236	30.0426	7787.841
345.0	0.96991	0.0300895	1.80077	14.21748	-7.49257	28.30448	141.0889	0.10734	9.31607	32.45835	31.22845	12.37348	0.31161	5.54356	4411198.274	0.54424	6.83949E-7	696.00514	8148.039	29.8394	7789.741
340.0	0.97107	0.0289346	1.80158	14.21063	-7.53714	28.23007	140.98469	0.10655	9.3851	32.78129	31.31122	12.50149	0.3111	5.69493	5394564.952	0.52549	5.5475E-7	698.21074	7999.582	29.6914	7791.182
339.33	0.9712	0.0287981	1.80168	14.20972	-7.54306	28.2207	140.96898	0.10645	9.39435	32.82184	31.32224	12.51758	0.31103	5.7158	5543407.349	0.523	5.39263E-7	698.50679	7979.754	 	7791.285
335.0	1.0	0.0	1.80276	14.1975	-7.62254	27.66579	140.87456	0.10577	9.45487	36.49087	31.49055	13.96118	0.30687	 	7158197.295	 	4.14662E-7	 	7741.865	51.5434	7902.161
330.0	1.0	0.0	1.80356	14.19118	-7.66366	27.62026	140.645	0.10507	9.51772	36.64865	31.57113	14.0252	0.30653	 	8779104.805	 	3.35322E-7	 	7589.148	30.5434	 
325.0	1.0	0.0	1.80436	14.18488	-7.70466	27.57473	140.41545	0.10437	9.58161	36.80555	31.65067	14.08891	0.30619	 	1.080385671E7	 	2.7022E-7	 	7448.142	28.2012	 
320.0	1.0	0.0	1.80516	14.1786	-7.74554	27.52921	140.18591	0.10366	9.64659	36.96157	31.72917	14.15232	0.30585	 	1.334218283E7	 	2.16982E-7	 	7307.38	28.1524	 
315.0	1.0	0.0	1.80596	14.17234	-7.7863	27.48368	139.9564	0.10296	9.71267	37.11671	31.80664	14.21542	0.30551	 	1.653610431E7	 	1.73597E-7	 	7166.871	28.1018	 
310.0	1.0	0.0	1.80676	14.16609	-7.82693	27.43815	139.7269	0.10225	9.77988	37.27096	31.88309	14.27822	0.30517	 	2.057016823E7	 	1.38366E-7	 	7026.623	28.0496	 
305.0	1.0	0.0	1.80755	14.15986	-7.86744	27.39262	139.49743	0.10154	9.84826	37.42432	31.95851	14.34071	0.30483	 	2.568516009E7	 	1.09861E-7	 	6886.636	27.9974	 
300.0	1.0	0.0	1.80834	14.15366	-7.90783	27.34709	139.26799	0.10083	9.91784	37.57681	32.03292	14.40289	0.30449	 	3.219655601E7	 	8.68852E-8	 	6746.907	27.9458	 
295.0	1.0	0.0	1.80913	14.14747	-7.9481	27.30157	139.03857	0.10011	9.98864	37.72841	32.10631	14.46477	0.30415	 	4.051946431E7	 	6.84362E-8	 	6607.436	27.8942	 
290.0	1.0	0.0	1.80992	14.1413	-7.98824	27.25604	138.80919	0.0993967	10.0607	37.87913	32.17871	14.52634	0.30381	 	5.120249332E7	 	5.36809E-8	 	6468.22	27.8432	 
285.0	1.0	0.0	1.81071	14.13515	-8.02826	27.21052	138.57985	0.0986772	10.13405	38.02896	32.2501	14.5876	0.30347	 	6.497395666E7	 	4.19274E-8	 	6329.26	27.792	 
280.0	1.0	0.0	1.8115	14.12902	-8.06815	27.16499	138.35056	0.0979553	10.20873	38.17791	32.3205	14.64856	0.30313	 	8.280521417E7	 	3.26041E-8	 	6190.554	27.7412	 
275.0	1.0	0.0	1.81228	14.1229	-8.10792	27.11947	138.1213	0.097231	10.28478	38.32598	32.38992	14.70921	0.30279	 	1.059979332E8	 	2.524E-8	 	6052.103	27.6902	 
270.0	1.0	0.0	1.81306	14.11681	-8.14757	27.07395	137.8921	0.0965043	10.36224	38.47317	32.45835	14.76956	0.30245	 	1.36304914E8	 	1.94489E-8	 	5913.906	27.6394	 
265.0	1.0	0.0	1.81384	14.11074	-8.1871	27.02843	137.66296	0.095775	10.44113	38.61948	32.5258	14.82959	0.30211	 	1.760982601E8	 	1.49154E-8	 	5775.963	27.5886	 
260.0	1.0	0.0	1.81462	14.10468	-8.2265	26.98291	137.43387	0.0950433	10.52151	38.7649	32.59228	14.88932	0.30177	 	2.286046979E8	 	1.13828E-8	 	5638.271	27.5384	 
255.0	1.0	0.0	1.8154	14.09864	-8.26578	26.93738	137.20485	0.0943092	10.60342	38.90945	32.65779	14.94875	0.30143	 	2.982366624E8	 	8.64337E-9	 	5500.832	27.4878	 
250.0	1.0	0.0	1.81617	14.09263	-8.30494	26.89186	136.97589	0.0935725	10.6869	39.05311	32.72234	15.00786	0.30109	 	3.910607499E8	 	6.52933E-9	 	5363.644	27.4376	 
245.0	1.0	0.0	1.81695	14.08663	-8.34397	26.84634	136.74701	0.0928333	10.772	39.19589	32.78594	15.06667	0.30075	 	5.154643633E8	 	4.90618E-9	 	5226.706	27.3876	 
240.0	1.0	0.0	1.81772	14.08065	-8.38288	26.80082	136.51821	0.0920916	10.85876	39.33779	32.84858	15.12517	0.30041	 	6.831100453E8	 	3.6664E-9	 	5090.019	27.3374	 
235.0	1.0	0.0	1.81849	14.07468	-8.42167	26.75531	136.28949	0.0913473	10.94723	39.47881	32.91028	15.18336	0.30007	 	9.103099939E8	 	2.72452E-9	 	4953.582	27.2874	 
230.0	1.0	0.0	1.81926	14.06874	-8.46034	26.70979	136.06086	0.0906004	11.03747	39.61895	32.97103	15.24124	0.29973	 	1.220018198E9	 	2.01288E-9	 	4817.393	27.2378	 
