T (C)	Fraction solid (wt)-TOTAL	Fraction liquid (wt)-LIQUID	Density (g/(cm)^3)-TOTAL	Molar volume (cm^3)-TOTAL	Volume change (%)-  	Average expansion coeff. (10e-6 1/K)-  	Thermal conductivity (W/(m*K))-TOTAL	Electrical resistivity (10e-6 Ohm*m)-TOTAL	Electrical conductivity (10e6 1/(Ohm*m))-TOTAL	Young's modulus (GPa)-TOTAL	Bulk modulus (GPa)-TOTAL	Shear modulus(GPa)-TOTAL	Poisson's ratio-TOTAL	Liquid viscosity (mPa s)-  	Total viscosity (mPa s)-  	Liquid diffusivity (10e-9 (m^2)/s)-  	Total diffusivity (10e-9 (m^2)/s)-  	Surface Tension (mN/m)-  	Enthalpy (J/mole)-TOTAL	Specific heat (J/(mole K))-TOTAL	Latent heat (J/mole)-TOTAL
700.0	0.00216	0.99784	1.66168	15.32165	0.0	52.75277	81.45668	0.2927	3.4165	4.49332E-12	23.70131	1.49787E-12	0.4999	1.28296	1.28296	3.70215	3.70215	543.84978	27471.338	 	0.0
695.0	0.0023	0.9977	1.663	15.30948	-0.0794323	52.70905	81.10736	0.29245	3.41941	5.82844E-12	23.77505	1.94295E-12	0.49989	1.29775	1.29775	3.64115	3.64115	545.58704	27296.967	34.8742	1.254
690.0	0.00244	0.99756	1.66432	15.29736	-0.15849	52.66673	80.75811	0.2922	3.42236	7.428E-12	23.84881	2.47618E-12	0.49989	1.31287	1.31287	3.58063	3.58063	547.32436	27122.565	34.8804	2.495
685.0	0.00257	0.99743	1.66564	15.28515	-0.2382	52.62019	80.40815	0.29194	3.42531	9.31989E-12	23.92234	3.10688E-12	0.49988	1.32833	1.32833	3.52058	3.52058	549.06174	26948.132	34.8866	3.723
680.0	0.00271	0.99729	1.66695	15.27315	-0.31653	52.58063	80.05908	0.29169	3.42833	1.15326E-11	23.99612	3.84451E-12	0.49987	1.34414	1.34414	3.46101	3.46101	550.79917	26773.668	34.8928	4.936
675.0	0.00285	0.99715	1.66826	15.2612	-0.3945	52.54254	79.7101	0.29143	3.43139	1.40947E-11	24.06991	4.69866E-12	0.49987	1.36031	1.36031	3.40192	3.40192	552.53667	26599.174	34.8988	6.136
670.0	0.00298	0.99702	1.66957	15.24915	-0.47317	52.49987	79.36034	0.29117	3.43445	1.70372E-11	24.14345	5.67961E-12	0.49986	1.37686	1.37686	3.34332	3.34332	554.27423	26424.648	34.9052	7.321
665.0	0.00311	0.99689	1.67087	15.23732	-0.5504	52.46478	79.01153	0.2909	3.43757	2.03864E-11	24.21726	6.79612E-12	0.49985	1.39379	1.39379	3.28521	3.28521	556.01184	26250.091	34.9114	8.493
660.0	0.00324	0.99676	1.67217	15.22554	-0.62727	52.43126	78.6628	0.29064	3.44074	2.41714E-11	24.29108	8.05794E-12	0.49985	1.41111	1.41111	3.22758	3.22758	557.7495	26075.504	34.9174	9.651
655.0	0.00337	0.99663	1.67347	15.21367	-0.70477	52.39352	78.31337	0.29037	3.44391	2.84214E-11	24.36467	9.47479E-12	0.49984	1.42885	1.42885	3.17044	3.17044	559.48724	25900.885	34.9238	10.795
650.0	0.0035	0.9965	1.67476	15.202	-0.78091	52.36323	77.96481	0.29009	3.44715	3.31633E-11	24.43851	1.10556E-11	0.49984	1.447	1.447	3.11379	3.11379	561.22503	25726.236	34.9298	11.925
645.0	0.00362	0.99638	1.67605	15.19024	-0.85768	52.32866	77.61556	0.28982	3.4504	3.84258E-11	24.51212	1.281E-11	0.49983	1.4656	1.4656	3.05764	3.05764	562.96237	25551.882	34.8708	13.041
640.0	0.00375	0.99625	1.67734	15.17852	-0.93415	52.29537	77.26633	0.28955	3.45368	4.42274E-11	24.58572	1.47442E-11	0.49982	1.48464	1.48464	3.00199	3.00199	564.70031	25378.174	34.7416	14.143
635.0	0.00387	0.99613	1.67862	15.16702	-1.00919	52.27016	76.91803	0.28926	3.45704	5.06021E-11	24.65959	1.68694E-11	0.49982	1.50414	1.50414	2.94683	2.94683	566.4383	25205.106	34.6136	15.232
633.17	0.00392	0.99608	1.67909	15.16277	-1.03696	52.25886	76.79036	0.28916	3.45827	5.30819E-11	24.6865	1.76961E-11	0.49982	1.5114	1.5114	2.92678	2.92678	567.07385	25141.978	34.5277	15.627
633.17	0.00392	0.99608	1.67909	15.16277	-1.03698	52.25875	76.79031	0.28916	3.45826	5.30826E-11	24.68648	1.76964E-11	0.49982	1.5114	1.51361	2.92678	2.9225	567.0739	25141.919	 	15.682
630.0	0.11452	0.88548	1.68682	15.09323	-1.49083	49.76504	82.44001	0.2684	3.72574	0.00396243	24.7977	0.00133759	0.48119	1.52826	2.18353	2.88435	2.01877	568.39657	24084.066	333.55	964.907
625.0	0.25915	0.74085	1.69717	15.00122	-2.09137	46.48697	90.70349	0.2426	4.12201	0.11646	24.97848	0.0399835	0.45641	1.55788	14.62464	2.81385	0.29974	570.54922	22669.857	282.842	2208.356
620.0	0.36797	0.63203	1.70524	14.93028	-2.55432	44.007	98.07263	0.22312	4.48185	0.49544	25.15402	0.17233	0.43745	1.58965	58.94513	2.74227	0.0739543	572.74391	21565.749	220.822	3142.299
615.0	0.45045	0.54955	1.7116	14.87471	-2.91704	42.11179	104.61375	0.208	4.80769	1.14637	25.32398	0.40284	0.42285	1.62293	143.06095	2.671	0.0303006	574.96335	20690.918	174.966	3847.549
610.0	0.51415	0.48585	1.71674	14.83021	-3.20749	40.63994	110.22701	0.1963	5.09433	1.99033	25.48927	0.70508	0.41143	1.65736	265.99674	2.60078	0.0162048	577.19745	19980.013	142.181	4389.451
605.0	0.5644	0.4356	1.72098	14.79361	-3.44634	39.47097	115.19436	0.18677	5.35422	2.9442	25.65068	1.04978	0.40229	1.69275	424.85112	2.53199	0.0100883	579.44042	19386.678	118.667	4814.346
600.0	0.60485	0.39515	1.72458	14.76275	-3.64779	38.52159	119.47868	0.17905	5.58516	3.94535	25.80875	1.41427	0.39484	1.729	617.5716	2.46479	0.00690062	581.68889	18879.095	101.517	5154.048
595.0	0.63803	0.36197	1.7277	14.73614	-3.82146	37.7354	123.16812	0.17269	5.79079	4.95314	25.96396	1.78345	0.38864	1.76606	843.77592	2.39925	0.00502174	583.94084	18435.368	88.7454	5430.441
590.0	0.66567	0.33433	1.73044	14.7128	-3.97376	37.07483	126.34877	0.16737	5.97474	5.94304	26.11674	2.14797	0.38341	1.8039	1104.69136	2.3354	0.00381357	586.19499	18040.199	79.0338	5658.815
587.64	0.67714	0.32286	1.73163	14.70271	-4.03962	36.79845	127.69411	0.16516	6.05491	6.39859	26.18812	2.3163	0.38121	1.82202	1240.32826	2.30585	0.00338725	587.25912	17867.529	 	5752.955
585.0	0.68898	0.31102	1.73289	14.69196	-4.1098	36.50957	129.09511	0.16286	6.14017	6.89891	26.26734	2.50154	0.37893	1.84245	1402.35647	2.27328	0.0029867	588.44878	17682.808	71.4782	5849.941
580.0	0.70898	0.29102	1.73513	14.67305	-4.23325	36.01788	131.47902	0.15898	6.29021	7.81831	26.41569	2.84295	0.37503	1.88178	1741.42963	2.2128	0.00239115	590.70266	17354.432	65.6752	6012.574
576.44	0.72151	0.27849	1.7366	14.66059	-4.31453	35.7063	132.98343	0.15652	6.38881	8.44665	26.52011	3.07698	0.37256	1.91025	2010.10277	2.17074	0.00206291	592.30627	17135.783	 	6113.651
575.0	0.72694	0.27306	1.73721	14.65546	-4.348	35.57557	133.62465	0.15551	6.43055	8.72907	26.56493	3.18233	0.37149	1.92204	2134.1632	2.15375	0.00193969	592.95849	17041.743	62.5378	6160.033
570.0	0.74402	0.25598	1.7392	14.63864	-4.45782	35.15848	135.64247	0.15229	6.56636	9.67316	26.71762	3.53526	0.3681	1.9634	2599.82118	2.09595	0.00158288	595.21765	16732.22	61.9046	6304.831
565.0	0.75879	0.24121	1.74105	14.62317	-4.5588	34.79411	137.38493	0.14947	6.69039	10.56147	26.86722	3.86835	0.36511	2.0056	3125.87851	2.03969	0.00130869	597.47704	16444.531	57.5378	6428.292
560.0	0.77166	0.22834	1.74276	14.60876	-4.65283	34.47084	138.8938	0.14696	6.80446	11.3977	27.01402	4.18276	0.36246	2.04866	3721.0495	1.9849	0.00109281	599.73648	16174.566	53.993	6534.517
555.0	0.78299	0.21701	1.74438	14.59523	-4.74114	34.18129	140.20218	0.14472	6.91003	12.18521	27.15829	4.47957	0.36009	2.09262	4395.35042	1.93155	9.19607E-4	601.99582	15919.187	51.0758	6626.638
550.0	0.79303	0.20697	1.74591	14.58244	-4.82461	33.92025	141.34075	0.14268	7.00846	12.92837	27.30027	4.7603	0.35794	2.13749	5160.84644	1.87959	7.78475E-4	604.25492	15675.953	48.6468	6707.088
545.0	0.80199	0.19801	1.74736	14.57028	-4.90397	33.68337	142.33305	0.14083	7.10079	13.63071	27.44015	5.02615	0.35598	2.18331	6031.32235	1.82896	6.62075E-4	606.51366	15442.94	46.6026	6777.782
540.0	0.81004	0.18996	1.74876	14.55867	-4.97974	33.4676	143.20047	0.13912	7.18799	14.29622	27.57808	5.27853	0.35419	2.23013	7023.21549	1.77962	5.65095E-4	608.77193	15218.616	44.8648	6840.246
535.0	0.8173	0.1827	1.7501	14.5475	-5.05266	33.2682	143.95733	0.13754	7.27069	14.9274	27.71408	5.51831	0.35253	2.27795	8154.74567	1.73155	4.83691E-4	611.02971	15001.741	43.375	6895.713
530.0	0.82389	0.17611	1.7514	14.53675	-5.12282	33.08498	144.61909	0.13606	7.34959	15.52757	27.84835	5.74669	0.351	2.32688	9447.98341	1.68465	4.14901E-4	613.28685	14791.305	42.0872	6945.184
525.0	0.82989	0.17011	1.75266	14.52634	-5.19078	32.91437	145.19819	0.13468	7.42524	16.0998	27.98089	5.96478	0.34957	2.3769	10928.78879	1.63893	3.5645E-4	615.54335	14586.478	40.9654	6989.485
520.0	0.83538	0.16462	1.75387	14.51622	-5.25681	32.7547	145.70517	0.13337	7.49814	16.64692	28.11178	6.1736	0.34823	2.42806	12627.27081	1.59434	3.06572E-4	617.79916	14386.568	39.982	7029.299
515.0	0.84042	0.15958	1.75506	14.50637	-5.32108	32.60498	146.14519	0.13213	7.5685	17.16931	28.24104	6.37328	0.34698	2.48043	14576.89636	1.55084	2.63895E-4	620.05422	14190.998	39.114	7065.196
510.0	0.84506	0.15494	1.75622	14.49677	-5.38377	32.46423	146.52912	0.13094	7.63683	17.6708	28.36877	6.56521	0.34579	2.53406	16820.08975	1.5084	2.2725E-4	622.30847	13999.282	38.3432	7097.658
505.0	0.84935	0.15065	1.75736	14.48739	-5.44498	32.33197	146.86247	0.12981	7.70338	18.15243	28.49502	6.74979	0.34467	2.589	19404.60184	1.46696	1.95725E-4	624.56185	13811.007	37.655	7127.09
500.0	0.85333	0.14667	1.75848	14.47821	-5.5049	32.20685	147.14908	0.12873	7.76833	18.61544	28.61977	6.92745	0.3436	2.64528	22386.06123	1.42652	1.68567E-4	626.81435	13625.819	37.0376	7153.839
495.0	0.85703	0.14297	1.75957	14.4692	-5.56369	32.08804	147.39614	0.12768	7.83202	19.06213	28.74309	7.09906	0.34258	2.70298	25832.60037	1.38705	1.45132E-4	629.06593	13443.415	36.4808	7178.202
490.0	0.86048	0.13952	1.76065	14.46033	-5.62159	31.97365	147.60475	0.12667	7.89449	19.49263	28.86492	7.26464	0.34161	2.76214	29820.61883	1.3485	1.24905E-4	631.31662	13263.535	35.976	7200.434
485.0	0.8637	0.1363	1.76171	14.45163	-5.67838	31.86574	147.78066	0.12569	7.95603	19.90897	28.9854	7.42496	0.34068	2.82285	34444.65687	1.31085	1.07429E-4	633.56625	13085.952	35.5166	7220.756
480.0	0.86671	0.13329	1.76276	14.44305	-5.73434	31.76209	147.92533	0.12474	8.01669	20.31118	29.10448	7.58001	0.33979	2.88515	39812.80677	1.27409	9.23305E-5	635.81488	12910.466	35.0972	7239.361
475.0	0.86954	0.13046	1.76379	14.43463	-5.78934	31.66407	148.04458	0.12381	8.07677	20.70176	29.22226	7.73073	0.33893	2.94913	46059.19855	1.23817	7.92792E-5	638.06236	12736.906	34.712	7256.416
470.0	0.87219	0.12781	1.7648	14.42628	-5.84382	31.56817	148.13804	0.12291	8.13625	21.08054	29.33863	7.87707	0.3381	3.01483	53336.11312	1.2031	6.80052E-5	640.30887	12565.118	34.3576	7272.068
465.0	0.87469	0.12531	1.76581	14.41805	-5.89754	31.47648	148.2078	0.12202	8.19522	21.44793	29.45368	8.01915	0.33729	3.08238	61827.78208	1.16881	5.82704E-5	642.5542	12394.968	34.03	7286.446
460.0	0.87705	0.12295	1.76681	14.40993	-5.95055	31.38868	148.25741	0.12116	8.25387	21.80532	29.56744	8.1575	0.33652	3.1518	71757.35354	1.13533	4.9867E-5	644.79832	12226.337	33.7262	7299.665
455.0	0.87927	0.12073	1.7678	14.4019	-6.00294	31.30412	148.28819	0.1203	8.31227	22.15313	29.67993	8.29228	0.33577	3.22322	83388.41126	1.1026	4.26189E-5	647.04122	12059.118	33.4438	7311.824
450.0	0.88138	0.11862	1.76877	14.39394	-6.05492	31.22123	148.30118	0.11947	8.37048	22.49202	29.79108	8.42374	0.33504	3.2967	97037.0937	1.07062	3.63728E-5	649.28298	11893.217	33.1802	7323.014
445.0	0.88337	0.11663	1.76974	14.38607	-6.10626	31.14191	148.29806	0.11864	8.42858	22.82239	29.90099	8.55202	0.33433	3.37235	113084.4598	1.03937	3.09955E-5	651.52338	11728.549	32.9336	7333.315
440.0	0.88526	0.11474	1.7707	14.37827	-6.15715	31.06465	148.27989	0.11783	8.48663	23.14484	30.00961	8.67735	0.33363	3.45025	131988.444	1.00883	2.63713E-5	653.7625	11565.037	32.7024	7342.797
435.0	0.88706	0.11294	1.77165	14.37056	-6.20751	30.99033	148.24821	0.11703	8.54473	23.45948	30.11703	8.79976	0.33296	3.53053	154301.4102	0.97898	2.23997E-5	656.00019	11402.614	32.4846	7351.525
430.0	0.88876	0.11124	1.77259	14.3629	-6.25747	30.91779	148.20367	0.11624	8.6029	23.76719	30.22318	8.91959	0.3323	3.61328	180693.3641	0.9498	1.8993E-5	658.23653	11241.216	32.2796	7359.556
425.0	0.89039	0.10961	1.77353	14.35531	-6.30701	30.84741	148.14747	0.11546	8.66123	24.06803	30.32811	9.03686	0.33166	3.69862	211974.1675	0.92129	1.60751E-5	660.47142	11080.789	32.0854	7366.94
420.0	0.89193	0.10807	1.77446	14.3478	-6.35606	30.77972	148.07993	0.11468	8.71973	24.36232	30.43183	9.15168	0.33103	3.78667	249128.064	0.89342	1.35797E-5	662.70473	10921.281	31.9016	7373.726
415.0	0.89341	0.10659	1.77538	14.34033	-6.4048	30.71324	148.00255	0.11391	8.77849	24.65056	30.53434	9.26424	0.33041	3.87758	293356.7981	0.86618	1.14492E-5	664.93659	10762.651	31.726	7379.956
410.0	0.89481	0.10519	1.7763	14.33292	-6.45317	30.64858	147.91576	0.11315	8.83756	24.93294	30.63566	9.37462	0.32981	3.97147	346125.0978	0.83956	9.63318E-6	667.16686	10604.862	31.5578	7385.67
405.0	0.89615	0.10385	1.77721	14.32556	-6.50117	30.58585	147.81991	0.1124	8.89695	25.20971	30.73577	9.48291	0.32922	4.06846	409226.4095	0.81355	8.08814E-6	669.39548	10447.877	31.397	7390.905
400.0	0.89744	0.10256	1.77812	14.31827	-6.54877	30.52529	147.71598	0.11165	8.95673	25.48116	30.83473	9.58921	0.32864	4.16875	484864.6256	0.78812	6.77607E-6	671.62238	10291.658	31.2438	7395.692
395.22	0.89861	0.10139	1.77898	14.31134	-6.59402	30.46809	147.60934	0.11094	9.01421	25.73566	30.92813	9.68897	0.32809	4.26774	571295.7055	0.76438	5.71012E-6	673.74778	10143.138	 	7399.871
395.0	0.89867	0.10133	1.77902	14.31101	-6.59612	30.46567	147.60445	0.1109	9.01694	25.74754	30.93249	9.69363	0.32806	4.27242	575748.932	0.76328	5.66406E-6	673.84747	10136.145	31.1026	7400.086
390.0	0.89987	0.10013	1.77992	14.30378	-6.64335	30.4056	147.48692	0.11016	9.0777	26.01076	31.02862	9.7969	0.3275	4.37849	685270.0119	0.73922	4.7232E-6	676.06773	9980.762	31.0766	7404.661
385.0	0.90101	0.098986	1.78081	14.29661	-6.69012	30.34857	147.36243	0.10942	9.13894	26.26888	31.12368	9.89827	0.32694	4.48833	817529.2498	0.71569	3.92924E-6	678.28612	9826.091	30.9342	7408.828
380.0	0.90211	0.097887	1.7817	14.28948	-6.73667	30.29229	147.23178	0.10869	9.20074	26.52255	31.21759	9.99797	0.3264	4.60211	977672.0084	0.6927	3.26067E-6	680.50285	9672.105	30.7972	7412.613
375.0	0.90317	0.096833	1.78259	14.28239	-6.78291	30.23759	147.09496	0.10796	9.2631	26.77182	31.31039	10.09604	0.32586	4.72006	1172092.319	0.67022	2.69898E-6	682.71775	9518.777	30.6656	7416.036
372.52	0.90367	0.096327	1.78302	14.2789	-6.80569	30.21153	147.02499	0.10759	9.29425	26.89369	31.35602	10.14402	0.32559	4.78016	1283611.774	0.65926	2.45507E-6	683.81542	9442.976	 	7417.605
370.0	0.90418	0.095824	1.78346	14.27535	-6.82888	30.18424	146.95307	0.10723	9.32611	27.01673	31.4021	10.19248	0.32533	4.84238	1408771.171	0.64825	2.22822E-6	684.9308	9366.086	30.5382	7419.116
370.0	0.90418	0.095824	1.78346	14.27535	-6.82888	30.18424	146.95307	0.10723	9.32611	27.01673	31.4021	10.19248	0.32533	4.84238	1408771.171	0.64825	2.22822E-6	684.9308	9366.086	 	7419.116
370.0	0.90418	0.095824	1.78346	14.27535	-6.82888	30.18424	146.95303	0.10723	9.32612	27.01675	31.40212	10.19249	0.32533	4.8424	1408815.54	0.64824	2.22815E-6	684.93118	9366.06	 	7419.116
365.0	0.90515	0.094855	1.78434	14.26835	-6.87454	30.13259	146.80553	0.1065	9.38974	27.25741	31.49271	10.28734	0.3248	4.96931	1697700.795	0.62678	1.83463E-6	687.14186	9214.006	30.416	7421.875
363.08	0.90551	0.094494	1.78467	14.26568	-6.89198	30.11322	146.74749	0.10622	9.41431	27.34869	31.52716	10.32334	0.3246	5.01925	1824896.576	0.61868	1.70163E-6	687.98914	9155.852	 	7422.85
360.0	0.90608	0.093925	1.78521	14.26139	-6.91997	30.08204	146.65305	0.10577	9.45406	27.49431	31.58222	10.3808	0.32429	5.1011	2051448.209	0.6058	1.50637E-6	689.35098	9062.519	30.2974	7424.328
350.0	0.91555	0.084446	1.78746	14.24345	-7.03711	29.67789	146.75741	0.10403	9.61261	28.58462	31.75896	10.80935	0.32222	5.35119	3091847.45	0.56837	9.83697E-7	693.77005	8724.601	33.7918	7465.019
345.0	0.91813	0.081869	1.78844	14.23566	-7.08792	29.55576	146.68951	0.10324	9.68588	28.95645	31.8458	10.95604	0.32148	5.49124	3787707.056	0.54943	7.96534E-7	695.97427	8567.011	31.518	7474.412
340.05	0.92056	0.079436	1.7894	14.22803	-7.13772	29.43724	146.6122	0.10247	9.75897	29.31572	31.93112	11.09793	0.32077	5.63696	4643777.866	0.53094	6.44489E-7	698.15515	8412.109	 	7482.783
340.02	1.0	1.8065E-10	1.79209	14.20668	-7.27706	27.80759	150.06976	0.10011	9.98951	36.62667	32.12075	13.98015	0.30995	5.63979	5850634.099	0.53065	5.11525E-7	698.16355	8064.784	 	7829.399
335.0	1.0	1.8065E-10	1.79289	14.20029	-7.31876	27.76183	149.81917	0.0994511	10.0552	36.79125	32.20581	14.04671	0.3096	5.79445	7158197.292	0.51225	4.14662E-7	702.84361	7922.687	64.4324	 
330.0	1.0	1.8065E-10	1.79369	14.19395	-7.36015	27.71628	149.56977	0.0987979	10.12168	36.95412	32.28935	14.11265	0.30926	5.95527	8779104.801	0.49432	3.35322E-7	707.43457	7781.712	28.195	 
325.0	1.0	1.8065E-10	1.79449	14.18763	-7.40142	27.67073	149.32042	0.0981425	10.18927	37.11606	32.37177	14.17826	0.30891	6.12336	1.08038567E7	0.47677	2.7022E-7	711.9565	7640.828	28.1768	 
320.0	1.0	1.8065E-10	1.79529	14.18133	-7.44256	27.62518	149.07112	0.0974848	10.258	37.27707	32.45308	14.24355	0.30856	6.29915	1.334218283E7	0.45959	2.16982E-7	716.40779	7500.178	28.13	 
315.0	1.0	1.8065E-10	1.79609	14.17504	-7.48358	27.57963	148.82188	0.096825	10.32791	37.43713	32.53328	14.30852	0.30821	6.4831	1.65361043E7	0.44278	1.73597E-7	720.78684	7359.79	28.0776	 
310.0	1.0	1.8065E-10	1.79688	14.16877	-7.52448	27.53409	148.57269	0.0961629	10.39903	37.59627	32.61238	14.37317	0.30786	6.67572	2.057016822E7	0.42635	1.38366E-7	725.09209	7219.663	28.0254	 
305.0	1.0	1.8065E-10	1.79767	14.16253	-7.56525	27.48854	148.32356	0.0954985	10.47137	37.75447	32.69038	14.43749	0.30751	6.87755	2.568516007E7	0.41029	1.09861E-7	729.322	7079.796	27.9734	 
300.0	1.0	1.8065E-10	1.79846	14.1563	-7.60589	27.443	148.0745	0.0948318	10.54498	37.91173	32.7673	14.50149	0.30717	7.08916	3.2196556E7	0.3946	8.68852E-8	733.47509	6940.188	27.9216	 
295.0	1.0	1.8065E-10	1.79925	14.15009	-7.64642	27.39745	147.82549	0.0941629	10.6199	38.06806	32.84312	14.56517	0.30682	7.31117	4.051946429E7	0.37928	6.84362E-8	737.54992	6800.839	27.8698	 
290.0	1.0	1.8065E-10	1.80004	14.1439	-7.68682	27.35191	147.57656	0.0934916	10.69614	38.22345	32.91788	14.62852	0.30647	7.54428	5.120249329E7	0.36433	5.36809E-8	741.54512	6661.746	27.8186	 
285.0	1.0	1.8065E-10	1.80083	14.13773	-7.7271	27.30637	147.3277	0.0928181	10.77376	38.37791	32.99156	14.69154	0.30612	7.78919	6.497395663E7	0.34974	4.19274E-8	745.45939	6522.909	27.7674	 
280.0	1.0	1.8065E-10	1.80161	14.13158	-7.76725	27.26083	147.07892	0.0921422	10.85279	38.53144	33.06417	14.75425	0.30577	8.0467	8.280521413E7	0.33551	3.26041E-8	749.29152	6384.328	27.7162	 
275.0	1.0	1.8065E-10	1.80239	14.12544	-7.80728	27.21529	146.83021	0.091464	10.93327	38.68403	33.13573	14.81663	0.30543	8.31766	1.059979332E8	0.32165	2.524E-8	753.04037	6246.001	27.6654	 
270.0	1.0	1.8065E-10	1.80317	14.11933	-7.84719	27.16975	146.58159	0.0907834	11.01523	38.83569	33.20623	14.87868	0.30508	8.60298	1.363049139E8	0.30815	1.94489E-8	756.70493	6107.927	27.6148	 
265.0	1.0	1.8065E-10	1.80395	14.11323	-7.88697	27.12422	146.33306	0.0901005	11.09872	38.98642	33.27568	14.94041	0.30473	8.90367	1.7609826E8	0.295	1.49154E-8	760.28427	5970.107	27.564	 
260.0	1.0	1.8065E-10	1.80473	14.10716	-7.92663	27.07868	146.08461	0.0894151	11.18379	39.13621	33.3441	15.00182	0.30438	9.22082	2.286046978E8	0.28221	1.13828E-8	763.7776	5832.538	27.5138	 
255.0	1.0	1.8065E-10	1.8055	14.1011	-7.96617	27.03315	145.83627	0.0887274	11.27047	39.28508	33.41148	15.0629	0.30403	9.55558	2.982366623E8	0.26977	8.64337E-9	767.18426	5695.221	27.4634	 
250.0	1.0	1.8065E-10	1.80628	14.09506	-8.00558	26.98762	145.58802	0.0880373	11.35882	39.43301	33.47782	15.12366	0.30369	9.90926	3.910607497E8	0.25767	6.52933E-9	770.50374	5558.154	27.4134	 
245.0	1.0	1.8065E-10	1.80705	14.08904	-8.04487	26.94208	145.33988	0.0873447	11.44889	39.58	33.54315	15.18409	0.30334	10.28323	5.154643631E8	0.24593	4.90618E-9	773.73564	5421.338	27.3632	 
240.0	1.0	1.8065E-10	1.80782	14.08304	-8.08404	26.89655	145.09186	0.0866498	11.54071	39.72607	33.60745	15.2442	0.30299	10.67903	6.83110045E8	0.23453	3.6664E-9	776.87976	5284.771	27.3134	 
