T (C)	Fraction solid (wt)-TOTAL	Fraction liquid (wt)-LIQUID	Density (g/(cm)^3)-TOTAL	Molar volume (cm^3)-TOTAL	Volume change (%)-  	Average expansion coeff. (10e-6 1/K)-  	Thermal conductivity (W/(m*K))-TOTAL	Electrical resistivity (10e-6 Ohm*m)-TOTAL	Electrical conductivity (10e6 1/(Ohm*m))-TOTAL	Young's modulus (GPa)-TOTAL	Bulk modulus (GPa)-TOTAL	Shear modulus(GPa)-TOTAL	Poisson's ratio-TOTAL	Liquid viscosity (mPa s)-  	Total viscosity (mPa s)-  	Liquid diffusivity (10e-9 (m^2)/s)-  	Total diffusivity (10e-9 (m^2)/s)-  	Surface Tension (mN/m)-  	Enthalpy (J/mole)-TOTAL	Specific heat (J/(mole K))-TOTAL	Latent heat (J/mole)-TOTAL
1500.0	0.0	1.0	7.03897	7.9131	0.0	26.56526	30.4698	1.89624	0.52736	0.0	108.52762	0.0	0.49974	6.97956	6.97956	1.23995	1.23995	1769.17591	64730.452	 	0.0
1495.0	0.0	1.0	7.04286	7.90873	-0.0552387	26.51563	30.39539	1.89552	0.52756	0.0	108.71456	0.0	0.49974	7.04178	7.04178	1.22553	1.22553	1770.95612	64510.311	44.0282	0.0
1490.0	0.0	1.0	7.04675	7.90437	-0.11032	26.46606	30.32098	1.8948	0.52776	0.0	108.90149	0.0	0.49974	7.1049	7.1049	1.21121	1.21121	1772.73347	64290.645	43.9332	0.0
1485.0	0.0	1.0	7.05063	7.90002	-0.16526	26.41654	30.24657	1.89408	0.52796	0.0	109.08842	0.0	0.49974	7.16896	7.16896	1.19698	1.19698	1774.50794	64071.45	43.839	0.0
1480.0	0.0	1.0	7.0545	7.89569	-0.22003	26.36707	30.17216	1.89335	0.52816	0.0	109.27535	0.0	0.49974	7.23397	7.23397	1.18285	1.18285	1776.27949	63852.724	43.7452	0.0
1475.0	0.0	1.0	7.05836	7.89137	-0.27466	26.31765	30.09775	1.89262	0.52837	0.0	109.46228	0.0	0.49974	7.29995	7.29995	1.16882	1.16882	1778.0481	63634.464	43.652	0.0
1470.0	0.0	1.0	7.06222	7.88705	-0.32913	26.26829	30.02333	1.89188	0.52857	0.0	109.64921	0.0	0.49974	7.3669	7.3669	1.15488	1.15488	1779.81372	63416.667	43.5594	0.0
1465.0	0.0	1.0	7.06607	7.88276	-0.38345	26.21898	29.94892	1.89114	0.52878	0.0	109.83615	0.0	0.49974	7.43487	7.43487	1.14104	1.14104	1781.57633	63199.33	43.4674	0.0
1460.0	0.0	1.0	7.06991	7.87847	-0.43762	26.16973	29.87451	1.8904	0.52899	0.0	110.02308	0.0	0.49974	7.50386	7.50386	1.1273	1.1273	1783.33589	62982.449	43.3762	0.0
1455.0	0.0	1.0	7.07375	7.8742	-0.49163	26.12053	29.8001	1.88965	0.5292	0.0	110.21001	0.0	0.49974	7.57389	7.57389	1.11365	1.11365	1785.09237	62766.024	43.285	0.0
1450.0	0.0	1.0	7.07758	7.86993	-0.54549	26.07138	29.72569	1.8889	0.52941	0.0	110.39694	0.0	0.49974	7.64499	7.64499	1.1001	1.1001	1786.84574	62550.084	43.188	0.0
1445.0	0.0	1.0	7.08141	7.86568	-0.59919	26.0223	29.65128	1.88815	0.52962	0.0	110.58387	0.0	0.49974	7.71718	7.71718	1.08665	1.08665	1788.59596	62334.685	43.0798	0.0
1440.0	0.0	1.0	7.08522	7.86145	-0.65274	25.97327	29.57687	1.88739	0.52983	0.0	110.7708	0.0	0.49974	7.79047	7.79047	1.07329	1.07329	1790.34299	62119.818	42.9734	0.0
1435.0	0.0	1.0	7.08903	7.85722	-0.70614	25.92429	29.50246	1.88662	0.53005	0.0	110.95773	0.0	0.49974	7.8649	7.8649	1.06003	1.06003	1792.0868	61905.479	42.8678	0.0
1430.0	0.0	1.0	7.09284	7.85301	-0.75939	25.87538	29.42805	1.88586	0.53026	0.0	111.14467	0.0	0.49974	7.94048	7.94048	1.04687	1.04687	1793.82735	61691.666	42.7626	0.0
1425.0	0.0	1.0	7.09663	7.84881	-0.81248	25.82652	29.35364	1.88509	0.53048	0.0	111.3316	0.0	0.49974	8.01724	8.01724	1.0338	1.0338	1795.56461	61478.373	42.6586	0.0
1420.0	0.0	1.0	7.10042	7.84462	-0.86542	25.77772	29.27923	1.88432	0.5307	0.0	111.51853	0.0	0.49974	8.0952	8.0952	1.02083	1.02083	1797.29854	61265.599	42.5548	0.0
1417.3	0.0	1.0	7.10247	7.84236	-0.89398	25.75136	29.239	1.8839	0.53082	0.0	111.61959	0.0	0.49974	8.13786	8.13786	1.01386	1.01386	1798.23459	61150.773	42.4769	0.0040
1415.0	0.0623902	0.93761	7.11429	7.82939	-1.05787	25.35468	29.55174	1.86143	0.53722	9.88916E-4	109.78574	3.31725E-4	0.49057	8.1589	8.92171	1.00987	0.92353	1797.94255	60521.243	274.097	532.094
1410.0	0.18215	0.81785	7.13732	7.80404	-1.37816	24.58475	30.16196	1.81836	0.54994	0.0731225	106.30924	0.0248236	0.47284	8.20593	15.45696	1.00111	0.53148	1797.34489	59290.835	246.082	1550.753
1405.0	0.28052	0.71948	7.15678	7.78293	-1.64504	23.95341	30.67422	1.78269	0.56095	0.418	103.52594	0.14333	0.45818	8.25425	41.69539	0.99229	0.19644	1796.80283	58245.852	208.997	2384.493
1400.57	0.35337	0.64663	7.17164	7.76676	-1.8493	23.47742	31.06029	1.75588	0.56952	1.06626	101.52291	0.36838	0.44723	8.29773	91.45106	0.98449	0.0893265	1796.37042	57443.998	 	2999.542
1400.0	0.36974	0.63026	7.17446	7.76376	-1.88726	23.38429	31.1155	1.75217	0.57072	1.22702	101.25223	0.42461	0.44488	8.30487	112.25847	0.98331	0.0727449	1796.0608	57252.372	198.696	3167.235
1395.0	0.49696	0.50304	7.19669	7.7397	-2.19131	22.64289	31.54724	1.72302	0.58037	3.47026	99.29503	1.21639	0.42646	8.36703	441.8181	0.97308	0.018428	1793.50723	55741.267	302.221	4468.1
1390.0	0.58961	0.41039	7.21362	7.72154	-2.42085	22.0994	31.8551	1.70126	0.5878	7.06663	98.04554	2.50074	0.41291	8.42974	993.38664	0.96295	0.00817146	1791.14656	54589.47	230.359	5410.157
1385.0	0.65899	0.34101	7.22699	7.70727	-2.60117	21.68674	32.07636	1.68444	0.59367	11.72801	97.24428	4.18063	0.40266	8.49302	1708.97403	0.9529	0.0047356	1788.96002	53679.252	182.044	6111.128
1380.0	0.71221	0.28779	7.23785	7.69569	-2.74748	21.36451	32.23516	1.67109	0.59841	16.99104	96.74463	6.09123	0.39471	8.55736	2533.95435	0.94289	0.0031842	1786.92886	52936.639	148.523	6644.984
1375.0	0.75389	0.24611	7.24697	7.68603	-2.86955	21.1068	32.34816	1.66022	0.60233	22.43001	96.45647	8.07748	0.38843	8.62205	3430.13154	0.93298	0.00234516	1785.03609	52313.572	124.613	7059.783
1370.0	0.7871	0.2129	7.25478	7.67779	-2.97363	20.897	32.4269	1.65116	0.60563	27.74728	96.31935	10.02892	0.38336	8.68784	4374.51604	0.92311	0.0018333	1783.2646	51777.88	107.138	7387.693
1365.0	0.81399	0.18601	7.26161	7.67059	-3.0646	20.72209	32.47933	1.64348	0.60847	32.7686	96.29339	11.87946	0.37921	8.75439	5354.42163	0.9133	0.00149323	1781.60274	51307.447	94.0866	7650.825
1360.0	0.83606	0.16394	7.26771	7.66419	-3.14557	20.57375	32.51145	1.63684	0.61093	37.41658	96.3501	13.59852	0.37576	8.82207	6364.72456	0.90353	0.00125237	1780.03824	50886.7	84.1494	7864.749
1355.0	0.85439	0.14561	7.27322	7.65842	-3.21845	20.44696	32.5276	1.63102	0.61311	41.66792	96.47073	15.17566	0.37285	8.89096	7404.34253	0.89378	0.00107323	1778.55801	50504.44	76.452	8040.664
1350.0	0.86978	0.13022	7.27828	7.65313	-3.2853	20.33619	32.53102	1.62584	0.61507	45.5371	96.64047	16.61483	0.37037	8.96062	8475.47745	0.88411	9.34719E-4	1777.15555	50152.452	70.3976	8186.779
1345.0	0.88284	0.11716	7.28297	7.64823	-3.34727	20.23832	32.52424	1.62117	0.61684	49.05192	96.8486	17.92521	0.36824	9.03148	9581.7535	0.87447	8.24253E-4	1775.82235	49824.608	65.5688	8309.221
1343.06	0.8874	0.1126	7.28474	7.64638	-3.37063	20.20204	32.5195	1.61947	0.61749	50.33646	96.93702	18.4048	0.36748	9.059	10022.51462	0.87077	7.87062E-4	1775.31715	49702.898	 	8351.517
1340.0	0.89696	0.10304	7.28861	7.64234	-3.42164	20.10461	32.52508	1.61612	0.61877	53.08044	97.04255	19.43019	0.36593	9.11651	10873.23631	0.86364	7.24107E-4	1775.23653	49482.158	68.49	8446.737
1335.0	0.9103	0.0896982	7.29437	7.63636	-3.49721	19.96646	32.52368	1.61118	0.62066	57.11755	97.25259	20.94175	0.36372	9.21135	12281.02111	0.8521	6.39115E-4	1775.11113	49146.758	67.08	8577.667
1330.0	0.92123	0.0787651	7.29953	7.63101	-3.56485	19.84986	32.51109	1.60679	0.62236	60.63482	97.50057	22.26149	0.36188	9.30756	13711.0891	0.84067	5.70675E-4	1774.99078	48837.472	61.8572	8682.947
1325.0	0.9303	0.0696962	7.30423	7.62614	-3.62638	19.74991	32.48971	1.60284	0.62389	63.72077	97.77766	23.42147	0.36031	9.40529	15175.19539	0.82934	5.14008E-4	1774.87462	48548.364	57.8216	8768.507
1320.0	0.9379	0.0620956	7.30856	7.62167	-3.68283	19.66377	32.46146	1.59921	0.62531	66.44623	98.07763	24.44751	0.35896	9.50451	16684.11055	0.81811	4.66058E-4	1774.75746	48275.096	54.6536	8838.683
1315.0	0.94436	0.0556433	7.31261	7.61749	-3.73569	19.58734	32.42764	1.59586	0.62662	68.87993	98.39507	25.36495	0.35778	9.60536	18251.10277	0.80698	4.24707E-4	1774.64617	48014.258	52.1676	8896.884
1310.0	0.94994	0.0500643	7.31646	7.61353	-3.78575	19.51843	32.38961	1.5927	0.62786	71.08703	98.72623	26.19795	0.35673	9.70783	19891.91706	0.79595	3.88447E-4	1774.53512	47763.012	50.2492	8945.944
1305.0	0.9548	0.0451999	7.32014	7.60974	-3.83367	19.45521	32.34805	1.58971	0.62905	73.10345	99.06831	26.95979	0.35579	9.81193	21617.29466	0.78502	3.56315E-4	1774.42776	47519.643	48.6738	8987.575
1300.0	0.95907	0.0409269	7.32369	7.60609	-3.87976	19.39684	32.30357	1.58686	0.63018	74.95918	99.41965	27.66158	0.35493	9.91782	23438.36741	0.77418	3.27589E-4	1774.32108	47282.82	47.3646	9023.105
1295.0	0.96285	0.0371499	7.32713	7.60257	-3.92429	19.34261	32.2566	1.58412	0.63127	76.67625	99.77854	28.31149	0.35415	10.02586	25365.94772	0.7634	3.01733E-4	1774.21251	47051.492	46.2656	9053.585
1290.0	0.96621	0.0337897	7.33047	7.59914	-3.96758	19.29157	32.20758	1.58147	0.63232	78.27519	100.14364	28.91716	0.35344	10.13571	27411.29522	0.75272	2.78329E-4	1774.10516	46824.83	45.3324	9079.84
1285.0	0.96921	0.0307857	7.33373	7.5958	-4.0098	19.2433	32.15676	1.5789	0.63335	79.77284	100.51424	29.48488	0.35278	10.24742	29586.9969	0.74213	2.57037E-4	1773.99697	46602.16	44.534	9102.542
1280.0	0.97191	0.0280863	7.33693	7.59253	-4.05116	19.1972	32.10441	1.5764	0.63436	81.1813	100.88917	30.01916	0.35216	10.36099	31904.84727	0.73164	2.37598E-4	1773.89067	46382.936	43.8448	9122.234
1275.0	0.97435	0.0256493	7.34007	7.58932	-4.09168	19.15323	32.05072	1.57396	0.63534	82.51251	101.2681	30.52444	0.35158	10.47692	34378.84773	0.72122	2.1979E-4	1773.78012	46166.714	43.2444	9139.357
1270.0	0.97656	0.0234418	7.34316	7.58616	-4.13157	19.11081	31.99585	1.57156	0.63631	83.77587	101.6503	31.00426	0.35104	10.59487	37022.97868	0.71088	2.03434E-4	1773.67075	45953.123	42.7182	9154.281
1265.0	0.97857	0.0214329	7.34621	7.58306	-4.17085	19.06985	31.93994	1.56921	0.63726	84.97911	102.0354	31.46151	0.35053	10.71473	39852.78432	0.70065	1.88377E-4	1773.55883	45741.856	42.2534	9167.309
1260.0	0.9804	0.0195998	7.34922	7.57999	-4.20964	19.03006	31.88316	1.5669	0.6382	86.12967	102.4229	31.89896	0.35004	10.83717	42884.18891	0.69049	1.74491E-4	1773.44748	45532.655	41.8402	9178.697
1255.0	0.98208	0.0179208	7.35219	7.57696	-4.24794	18.99143	31.82558	1.56461	0.63914	87.23258	102.81253	32.31852	0.34958	10.96214	46135.02492	0.68039	1.61667E-4	1773.33186	45325.303	41.4704	9188.66
1250.0	0.98362	0.0163785	7.35514	7.57395	-4.28586	18.95363	31.76726	1.56236	0.64006	88.29424	103.2041	32.72257	0.34913	11.08926	49625.3708	0.67039	1.49805E-4	1773.21629	45119.614	41.1378	9197.382
1245.0	0.98504	0.0149584	7.35806	7.57098	-4.32341	18.91666	31.70832	1.56012	0.64097	89.31773	103.59728	33.11228	0.34871	11.21848	53374.75676	0.66049	1.38824E-4	1773.09916	44915.429	40.837	9205.018
1240.0	0.98635	0.013648	7.36096	7.56804	-4.36065	18.88031	31.64879	1.55791	0.64189	90.30806	103.99187	33.48954	0.3483	11.35043	57406.80699	0.65066	1.28649E-4	1772.98261	44712.611	40.5636	9211.713
1235.0	0.98757	0.0124339	7.36384	7.56512	-4.39756	18.8447	31.58877	1.55571	0.64279	91.26761	104.38774	33.85522	0.34791	11.48517	61745.15006	0.64091	1.19214E-4	1772.86093	44511.04	40.3142	9217.588
1230.0	0.98869	0.0113079	7.3667	7.56221	-4.43424	18.8095	31.52827	1.55353	0.64369	92.20047	104.78465	34.21088	0.34753	11.62217	66417.74791	0.63125	1.1046E-4	1772.74045	44310.612	40.0856	9222.744
1225.0	0.98974	0.0102617	7.36954	7.55933	-4.47069	18.77471	31.46733	1.55136	0.64459	93.1079	105.18246	34.557	0.34716	11.76158	71452.33729	0.62169	1.02335E-4	1772.62341	44111.239	39.8746	9227.266
1220.0	0.99071	0.00928592	7.37237	7.55646	-4.50691	18.74038	31.40602	1.5492	0.64549	93.99357	105.58108	34.89495	0.34681	11.90439	76882.09822	0.61219	9.47905E-5	1772.49924	43912.843	39.6792	9231.232
1215.63	0.99157	0.00843049	7.37487	7.55394	-4.53884	18.7092	31.35235	1.54732	0.64628	94.77464	105.92953	35.19309	0.3465	12.0309	81995.04776	0.60398	8.86198E-5	1772.39267	43740.037	 	9234.61
1215.0	0.99175	0.0082488	7.37526	7.55355	-4.54378	18.70369	31.34496	1.54702	0.6464	94.91295	105.98012	35.24595	0.34644	12.04997	82785.37801	0.60276	8.77364E-5	1772.11639	43713.832	39.8022	9236.23
1210.0	0.99309	0.00691045	7.37836	7.55048	-4.5825	18.66088	31.28623	1.54472	0.64737	95.97386	106.38	35.65148	0.346	12.20188	89281.60318	0.59326	8.10793E-5	1770.0187	43508.51	41.0644	9247.954
1205.0	0.99427	0.0057308	7.38143	7.54745	-4.6208	18.61906	31.22663	1.54245	0.64832	96.97696	106.78096	36.03507	0.34559	12.35734	96270.52625	0.58382	7.49397E-5	1768.02189	43305.52	40.598	9257.759
1203.23	0.99468	0.00531747	7.38253	7.54637	-4.6345	18.60365	31.2055	1.54165	0.64866	97.33201	106.92261	36.17087	0.34545	12.41325	98879.02607	0.5805	7.28756E-5	1767.32912	43234.192	 	9260.951
1200.0	0.99559	0.00441285	7.38462	7.5442	-4.66184	18.56816	31.16779	1.54013	0.64929	98.06754	107.18612	36.45243	0.34514	12.5991	103921.62	0.57068	6.91875E-5	1765.85759	43098.49	41.406	9272.012
1195.0	0.99677	0.00322663	7.38778	7.54092	-4.70333	18.51541	31.10865	1.53783	0.65027	99.1182	107.59334	36.85473	0.34471	12.89015	112173.2333	0.5559	6.38804E-5	1763.75471	42892.116	41.2748	9286.02
1193.03	0.99718	0.00281838	7.38901	7.53965	-4.71943	18.4953	31.08515	1.53692	0.65065	99.50762	107.75369	37.00387	0.34456	13.00641	115586.5417	0.5502	6.19109E-5	1762.95546	42811.805	 	9290.671
1193.03	0.99718	0.00281838	7.38901	7.53965	-4.71943	18.4953	31.08515	1.53692	0.65065	99.50762	107.75369	37.00387	0.34456	13.00641	115586.5252	0.5502	6.19109E-5	1762.95547	42811.806	 	9290.67
1190.0	0.99778	0.00221895	7.39093	7.53767	-4.74438	18.46362	31.04738	1.53561	0.65121	100.09821	108.00325	37.23006	0.34432	13.1701	121056.9671	0.54223	5.8991E-5	1761.30043	42688.388	40.7456	9297.789
1185.0	0.99864	0.0013587	7.39406	7.53446	-4.78496	18.41288	30.98484	1.53345	0.65212	101.0196	108.41426	37.58302	0.34395	13.44475	130634.5158	0.52934	5.44792E-5	1758.73388	42486.94	40.2896	9307.682
1180.0	0.99937	6.27215E-4	7.39715	7.5313	-4.82491	18.36376	30.92216	1.53129	0.65304	101.88705	108.82442	37.91543	0.34361	13.72318	140961.0682	0.51682	5.03151E-5	1756.33124	42287.819	39.8242	9315.652
1175.0	1.0	0.0	7.4002	7.52818	-4.86428	18.31607	30.85925	1.52914	0.65396	102.7114	109.23394	38.23142	0.34329	 	152115.0029	 	4.64652E-5	 	42090.593	39.4452	9322.126
1170.0	1.0	0.0	7.40253	7.52581	-4.89427	18.29847	30.79392	1.52709	0.65484	103.22111	109.63855	38.42676	0.34309	 	163780.2588	 	4.30068E-5	 	41896.393	38.84	 
1165.0	1.0	0.0	7.40486	7.52344	-4.92422	18.28088	30.72858	1.52503	0.65572	103.73152	110.04289	38.62243	0.34289	 	176435.1154	 	3.97838E-5	 	41709.473	37.384	 
1160.0	1.0	0.0	7.40719	7.52108	-4.95411	18.26329	30.66323	1.52297	0.65661	104.24261	110.44695	38.8184	0.3427	 	190171.2928	 	3.67818E-5	 	41522.815	37.3316	 
1155.0	1.0	0.0	7.40952	7.51871	-4.98396	18.24571	30.59788	1.5209	0.65751	104.75436	110.8507	39.01468	0.3425	 	205089.7134	 	3.39873E-5	 	41336.407	37.2816	 
1150.0	1.0	0.0	7.41184	7.51636	-5.01376	18.22813	30.53253	1.51882	0.65841	105.26675	111.25412	39.21125	0.3423	 	221301.4931	 	3.13872E-5	 	41150.253	37.2308	 
1145.0	1.0	0.0	7.41417	7.514	-5.04351	18.21056	30.46717	1.51673	0.65931	105.77976	111.6572	39.40812	0.34211	 	238929.0478	 	2.89694E-5	 	40964.354	37.1798	 
1140.0	1.0	0.0	7.41649	7.51165	-5.07321	18.19299	30.40181	1.51463	0.66023	106.29338	112.05991	39.60526	0.34191	 	258107.3283	 	2.67223E-5	 	40778.711	37.1286	 
1135.0	1.0	0.0	7.4188	7.5093	-5.10286	18.17542	30.33645	1.51252	0.66115	106.80759	112.46224	39.80268	0.34171	 	278985.1985	 	2.46351E-5	 	40593.322	37.0778	 
1130.0	1.0	0.0	7.42112	7.50696	-5.13247	18.15786	30.27108	1.51041	0.66207	107.32236	112.86417	40.00038	0.34152	 	301726.9757	 	2.26974E-5	 	40408.185	37.0274	 
1125.0	1.0	0.0	7.42343	7.50462	-5.16202	18.14031	30.20571	1.50828	0.66301	107.83768	113.26568	40.19833	0.34132	 	326514.1538	 	2.08996E-5	 	40223.299	36.9772	 
1120.0	1.0	0.0	7.42574	7.50229	-5.19153	18.12276	30.14033	1.50615	0.66395	108.35352	113.66675	40.39654	0.34112	 	353547.3305	 	1.92326E-5	 	40038.663	36.9272	 
1115.0	1.0	0.0	7.42805	7.49996	-5.22099	18.10522	30.07495	1.504	0.66489	108.86988	114.06736	40.59499	0.34093	 	383048.3659	 	1.76876E-5	 	39854.275	36.8776	 
1110.0	1.0	0.0	7.43035	7.49763	-5.2504	18.08768	30.00956	1.50185	0.66584	109.38672	114.4675	40.79369	0.34073	 	415262.8016	 	1.62567E-5	 	39670.133	36.8284	 
1105.0	1.0	0.0	7.43266	7.49531	-5.27976	18.07014	29.94417	1.49969	0.6668	109.90404	114.86714	40.99262	0.34053	 	450462.5729	 	1.49322E-5	 	39486.236	36.7794	 
1100.0	1.0	0.0	7.43496	7.49299	-5.30907	18.05261	29.87878	1.49752	0.66777	110.42181	115.26627	41.19177	0.34034	 	488949.0535	 	1.3707E-5	 	39302.583	36.7306	 
1095.0	1.0	0.0	7.43726	7.49067	-5.33834	18.03508	29.81338	1.49534	0.66874	110.94001	115.66488	41.39115	0.34014	 	531056.4738	 	1.25742E-5	 	39119.171	36.6824	 
1090.0	1.0	0.0	7.43955	7.48836	-5.36755	18.01756	29.74798	1.49315	0.66972	111.45862	116.06294	41.59074	0.33995	 	577155.7633	 	1.15276E-5	 	38935.999	36.6344	 
1085.0	1.0	0.0	7.44185	7.48605	-5.39672	18.00005	29.68257	1.49095	0.67071	111.97764	116.46043	41.79054	0.33975	 	627658.8725	 	1.05611E-5	 	38753.065	36.5868	 
1080.0	1.0	0.0	7.44414	7.48375	-5.42584	17.98254	29.61716	1.48874	0.67171	112.49703	116.85735	41.99053	0.33955	 	683023.6372	 	9.66934E-6	 	38570.368	36.5394	 
1075.0	1.0	0.0	7.44643	7.48145	-5.45491	17.96503	29.55174	1.48653	0.67271	113.01678	117.25367	42.19072	0.33936	 	743759.258	 	8.84693E-6	 	38387.906	36.4924	 
1070.0	1.0	0.0	7.44871	7.47915	-5.48393	17.94753	29.48632	1.4843	0.67372	113.53687	117.64937	42.3911	0.33916	 	810432.478	 	8.08899E-6	 	38205.677	36.4458	 
1065.0	1.0	0.0	7.451	7.47686	-5.51291	17.93003	29.4209	1.48206	0.67474	114.05728	118.04445	42.59165	0.33896	 	883674.552	 	7.39093E-6	 	38023.679	36.3996	 
1060.0	1.0	0.0	7.45328	7.47457	-5.54183	17.91254	29.35547	1.47982	0.67576	114.578	118.43887	42.79238	0.33877	 	964189.1162	 	6.74844E-6	 	37841.91	36.3538	 
1055.0	1.0	0.0	7.45556	7.47228	-5.57071	17.89505	29.29003	1.47756	0.67679	115.09901	118.83264	42.99328	0.33857	 	1052761.081	 	6.15749E-6	 	37660.369	36.3082	 
1050.0	1.0	0.0	7.45784	7.47	-5.59954	17.87757	29.2246	1.47529	0.67783	115.62028	119.22572	43.19433	0.33837	 	1150266.686	 	5.61432E-6	 	37479.054	36.263	 
1045.0	1.0	0.0	7.46011	7.46772	-5.62832	17.86009	29.15915	1.47302	0.67888	116.14181	119.6181	43.39553	0.33818	 	1257684.887	 	5.1154E-6	 	37297.962	36.2184	 
1040.0	1.0	0.0	7.46238	7.46545	-5.65706	17.84262	29.0937	1.47073	0.67993	116.66356	120.00978	43.59688	0.33798	 	1376110.249	 	4.65745E-6	 	37117.091	36.1742	 
1035.0	1.0	0.0	7.46465	7.46318	-5.68574	17.82515	29.02825	1.46843	0.681	117.18553	120.40072	43.79837	0.33778	 	1506767.562	 	4.23739E-6	 	36936.44	36.1302	 
1030.0	1.0	0.0	7.46692	7.46091	-5.71438	17.80768	28.96279	1.46613	0.68207	117.7077	120.79093	44.0	0.33759	 	1651028.438	 	3.85236E-6	 	36756.006	36.0868	 
1025.0	1.0	0.0	7.46918	7.45865	-5.74297	17.79023	28.89733	1.46381	0.68315	118.23004	121.18037	44.20175	0.33739	 	1810430.142	 	3.49969E-6	 	36575.788	36.0436	 
1020.0	1.0	0.0	7.47145	7.45639	-5.77151	17.77277	28.83186	1.46148	0.68424	118.75255	121.56904	44.40361	0.33719	 	1986697.014	 	3.1769E-6	 	36395.782	36.0012	 
1015.0	1.0	0.0	7.47371	7.45414	-5.8	17.75532	28.76639	1.45915	0.68533	119.27519	121.95691	44.60559	0.337	 	2181764.825	 	2.88168E-6	 	36215.988	35.9588	 
1010.0	1.0	0.0	7.47596	7.45189	-5.82844	17.73788	28.70092	1.4568	0.68644	119.79797	122.34398	44.80768	0.3368	 	2397808.52	 	2.61186E-6	 	36036.401	35.9174	 
1005.0	1.0	0.0	7.47822	7.44964	-5.85684	17.72044	28.63543	1.45444	0.68755	120.32084	122.73023	45.00986	0.33661	 	2637273.829	 	2.36545E-6	 	35857.021	35.876	 
1000.0	1.0	0.0	7.48047	7.4474	-5.88519	17.703	28.56995	1.45207	0.68867	120.84381	123.11565	45.21214	0.33641	 	2902913.336	 	2.14058E-6	 	35677.845	35.8352	 
995.0	1.0	0.0	7.48272	7.44516	-5.91349	17.68557	28.50446	1.44969	0.6898	121.36685	123.50021	45.41451	0.33621	 	3197827.644	 	1.93554E-6	 	35498.869	35.7952	 
990.0	1.0	0.0	7.48497	7.44292	-5.94174	17.66815	28.43896	1.4473	0.69094	121.88995	123.88391	45.61695	0.33602	 	3525512.435	 	1.74872E-6	 	35320.093	35.7552	 
