T (C)	Fraction solid (wt)-TOTAL	Fraction liquid (wt)-LIQUID	Density (g/(cm)^3)-TOTAL	Molar volume (cm^3)-TOTAL	Volume change (%)-  	Average expansion coeff. (10e-6 1/K)-  	Thermal conductivity (W/(m*K))-TOTAL	Electrical resistivity (10e-6 Ohm*m)-TOTAL	Electrical conductivity (10e6 1/(Ohm*m))-TOTAL	Young's modulus (GPa)-TOTAL	Bulk modulus (GPa)-TOTAL	Shear modulus(GPa)-TOTAL	Poisson's ratio-TOTAL	Liquid viscosity (mPa s)-  	Total viscosity (mPa s)-  	Liquid diffusivity (10e-9 (m^2)/s)-  	Total diffusivity (10e-9 (m^2)/s)-  	Surface Tension (mN/m)-  	Enthalpy (J/mole)-TOTAL	Specific heat (J/(mole K))-TOTAL	Latent heat (J/mole)-TOTAL
1500.0	0.0	1.0	6.64602	8.00995	0.0	30.58341	29.74778	1.94227	0.51486	0.0	102.72994	0.0	0.49984	5.95443	5.95443	1.45342	1.45342	1763.10014	56367.053	 	0.0
1495.0	0.0	1.0	6.64991	8.00526	-0.0585804	30.53662	29.67935	1.94125	0.51513	0.0	102.90583	0.0	0.49984	6.00514	6.00514	1.43709	1.43709	1765.00188	56151.509	43.1088	0.0
1490.0	0.0	1.0	6.6538	8.00058	-0.11701	30.48989	29.61092	1.94024	0.5154	0.0	103.08171	0.0	0.49984	6.05657	6.05657	1.42085	1.42085	1766.90057	55936.416	43.0186	0.0
1485.0	0.0	1.0	6.65769	7.99591	-0.1753	30.44323	29.54249	1.93922	0.51567	0.0	103.25759	0.0	0.49984	6.10874	6.10874	1.40472	1.40472	1768.79617	55721.771	42.929	0.0
1480.0	0.0	1.0	6.66157	7.99125	-0.23344	30.39663	29.47407	1.93819	0.51594	0.0	103.43348	0.0	0.49984	6.16167	6.16167	1.3887	1.3887	1770.68866	55507.571	42.84	0.0
1475.0	0.0	1.0	6.66544	7.98661	-0.29143	30.35008	29.40564	1.93716	0.51622	0.0	103.60936	0.0	0.49984	6.21535	6.21535	1.37278	1.37278	1772.578	55293.813	42.7516	0.0
1470.0	0.0	1.0	6.66931	7.98197	-0.34928	30.3036	29.33721	1.93613	0.5165	0.0	103.78524	0.0	0.49984	6.26982	6.26982	1.35696	1.35696	1774.46415	55080.495	42.6636	0.0
1465.0	0.0	1.0	6.67318	7.97735	-0.40698	30.25719	29.26879	1.93509	0.51677	0.0	103.96112	0.0	0.49984	6.32508	6.32508	1.34124	1.34124	1776.34709	54867.613	42.5764	0.0
1460.0	0.0	1.0	6.67703	7.97274	-0.46453	30.21084	29.20036	1.93404	0.51705	0.0	104.13701	0.0	0.49984	6.38115	6.38115	1.32563	1.32563	1778.22678	54655.166	42.4894	0.0
1455.0	0.0	1.0	6.68089	7.96814	-0.52193	30.16455	29.13193	1.93299	0.51733	0.0	104.31289	0.0	0.49984	6.43805	6.43805	1.31013	1.31013	1780.10318	54443.149	42.4034	0.0
1450.0	0.0	1.0	6.68473	7.96356	-0.57919	30.11833	29.06351	1.93194	0.51762	0.0	104.48877	0.0	0.49984	6.49579	6.49579	1.29473	1.29473	1781.97626	54231.593	42.3112	0.0
1445.0	0.0	1.0	6.68858	7.95898	-0.6363	30.07218	28.99508	1.93088	0.5179	0.0	104.66466	0.0	0.49984	6.55439	6.55439	1.27943	1.27943	1783.84598	54020.552	42.2082	0.0
1440.0	0.0	1.0	6.69241	7.95442	-0.69326	30.02609	28.92665	1.92981	0.51819	0.0	104.84054	0.0	0.49984	6.61386	6.61386	1.26423	1.26423	1785.71231	53810.015	42.1074	0.0
1435.0	0.0	1.0	6.69624	7.94987	-0.75008	29.98007	28.85823	1.92874	0.51847	0.0	105.01642	0.0	0.49984	6.67422	6.67422	1.24914	1.24914	1787.57521	53599.98	42.007	0.0
1430.0	0.0	1.0	6.70007	7.94533	-0.80675	29.93412	28.7898	1.92767	0.51876	0.0	105.1923	0.0	0.49984	6.7355	6.7355	1.23416	1.23416	1789.43464	53390.443	41.9074	0.0
1425.0	0.0	1.0	6.70389	7.9408	-0.86327	29.88823	28.72137	1.92659	0.51905	0.0	105.36819	0.0	0.49984	6.7977	6.7977	1.21927	1.21927	1791.29056	53181.4	41.8086	0.0
1420.0	0.0	1.0	6.7077	7.93629	-0.91965	29.84242	28.65295	1.9255	0.51935	0.0	105.54407	0.0	0.49984	6.86085	6.86085	1.20449	1.20449	1793.14294	52972.849	41.7102	0.0
1415.0	0.0	1.0	6.71151	7.93178	-0.97588	29.79668	28.58452	1.92441	0.51964	0.0	105.71995	0.0	0.49984	6.92497	6.92497	1.18982	1.18982	1794.99174	52764.787	41.6124	0.0
1410.0	0.0	1.0	6.71532	7.92729	-1.03196	29.75101	28.51609	1.92332	0.51994	0.0	105.89584	0.0	0.49984	6.99007	6.99007	1.17524	1.17524	1796.83691	52557.206	41.5162	0.0
1405.0	0.0	1.0	6.71911	7.92281	-1.08789	29.70541	28.44766	1.92221	0.52023	0.0	106.07172	0.0	0.49984	7.05618	7.05618	1.16077	1.16077	1798.67843	52350.102	41.4208	0.0
1400.0	0.0	1.0	6.72291	7.91834	-1.14368	29.65988	28.37924	1.92111	0.52053	0.0	106.2476	0.0	0.49984	7.12332	7.12332	1.14641	1.14641	1800.51624	52143.47	41.3264	0.0
1395.0	0.0	1.0	6.72669	7.91388	-1.19932	29.61443	28.31081	1.92	0.52083	0.0	106.42348	0.0	0.49984	7.1915	7.1915	1.13215	1.13215	1802.35032	51937.308	41.2324	0.0
1390.0	0.0	1.0	6.73047	7.90944	-1.25482	29.56905	28.24238	1.91888	0.52114	0.0	106.59937	0.0	0.49984	7.26075	7.26075	1.11799	1.11799	1804.1806	51731.612	41.1392	0.0
1385.0	0.0	1.0	6.73425	7.90501	-1.31016	29.52375	28.17396	1.91776	0.52144	0.0	106.77525	0.0	0.49984	7.33109	7.33109	1.10393	1.10393	1806.00707	51526.38	41.0464	0.0
1383.04	0.0	1.0	6.73572	7.90327	-1.33178	29.50605	28.14719	1.91732	0.52156	0.0	106.84406	0.0	0.49984	7.35891	7.35891	1.09846	1.09846	1806.72062	51446.219	40.9771	0.0
1380.0	0.0650202	0.93498	6.74912	7.88748	-1.52891	29.02175	28.38153	1.89799	0.52687	0.00100257	104.52837	3.36406E-4	0.49012	7.38474	8.15442	1.09261	0.98948	1806.26756	50755.99	226.769	565.615
1375.0	0.15971	0.84029	6.76894	7.86447	-1.81626	28.32371	28.72628	1.86954	0.53489	0.0371625	101.19791	0.0125899	0.47589	7.42925	13.36641	1.08278	0.60182	1805.54542	49729.114	205.375	1388.177
1370.0	0.24052	0.75948	6.78643	7.84416	-2.0698	27.7156	29.02195	1.84488	0.54204	0.19442	98.40678	0.0664155	0.46363	7.47463	33.01442	1.07294	0.24292	1804.85787	48824.536	180.916	2088.898
1365.0	0.31003	0.68997	6.80186	7.82633	-2.2924	27.19037	29.27752	1.82321	0.54848	0.54501	96.06062	0.18754	0.45301	7.52182	77.42388	1.06296	0.10327	1804.1983	48019.869	160.933	2690.161
1360.0	0.37023	0.62977	6.81568	7.81048	-2.49029	26.73123	29.49949	1.80397	0.55433	1.12445	94.08344	0.38942	0.44375	7.57018	153.82206	1.05295	0.0518196	1803.56583	47297.544	144.465	3209.532
1355.0	0.42271	0.57729	6.82804	7.79636	-2.66649	26.33035	29.69273	1.78674	0.55968	1.93663	92.41447	0.67449	0.43563	7.62034	266.37514	1.04281	0.0298323	1802.95644	46643.641	130.781	3660.927
1354.14	0.4309	0.5691	6.83003	7.7941	-2.69481	26.26671	29.7226	1.78401	0.56054	2.09595	92.15995	0.73062	0.43435	7.62895	289.16328	1.04109	0.0274669	1802.85442	46538.578	 	3731.292
1350.0	0.47663	0.52337	6.84077	7.78187	-2.84741	25.91297	29.8226	1.7735	0.56386	2.98243	91.27888	1.04457	0.42759	7.66853	494.49547	1.03308	0.0160208	1801.84546	45913.361	146.056	4189.144
1345.0	0.52479	0.47521	6.85246	7.76862	-3.01289	25.5367	29.92315	1.76209	0.56751	4.28185	90.41894	1.50727	0.4204	7.71811	827.58452	1.02328	0.00954318	1800.67477	45231.427	136.387	4669.457
1340.0	0.56634	0.43366	6.86298	7.75671	-3.16154	25.20598	30.00339	1.75195	0.57079	5.80803	89.74267	2.05354	0.41415	7.76919	1252.40677	1.01341	0.0062866	1799.54973	44617.651	122.755	5082.053
1335.0	0.60247	0.39753	6.87249	7.74594	-3.29604	24.91364	30.06708	1.74282	0.57378	7.53117	89.21415	2.67316	0.40866	7.82205	1766.94716	1.00344	0.00444211	1798.46588	44059.985	111.533	5438.975
1330.0	0.63408	0.36592	6.88117	7.73616	-3.41807	24.65521	30.11691	1.73453	0.57653	9.4161	88.808	3.35373	0.40382	7.87671	2369.10488	0.99338	0.00330276	1797.41762	43548.925	102.212	5749.725
1325.0	0.66191	0.33809	6.88914	7.72724	-3.52948	24.42571	30.15501	1.72693	0.57906	11.4261	88.50391	4.08213	0.39953	7.93318	3057.16551	0.98323	0.00255144	1796.40096	43076.903	94.4044	6021.869
1320.0	0.68655	0.31345	6.89652	7.71896	-3.63281	24.21805	30.18285	1.71994	0.58141	13.5259	88.28394	4.84561	0.39569	7.9914	3829.97609	0.97302	0.00203024	1795.41598	42637.829	87.8148	6261.495
1316.08	0.70408	0.29592	6.90201	7.71282	-3.70948	24.06677	30.19917	1.71479	0.58316	15.22716	88.15889	5.46586	0.39293	8.03804	4498.35301	0.96499	0.00172433	1794.66165	42313.064	 	6430.344
1315.0	0.73479	0.26521	6.91117	7.7026	-3.83715	23.71245	30.35051	1.70507	0.58648	18.58715	87.62785	6.69493	0.38815	8.05244	5497.42572	0.96261	0.00141	1792.81713	41886.335	150.299	6813.968
1311.91	0.80107	0.19893	6.93152	7.68004	-4.11871	22.94137	30.67344	1.68384	0.59388	27.95463	86.56475	10.14497	0.37776	8.09349	8327.13115	0.95587	9.29047E-4	1788.16999	40946.039	 	7631.578
1310.0	0.83696	0.16304	6.94333	7.66699	-4.28165	22.49564	30.84662	1.67237	0.59795	34.39956	85.9978	12.53545	0.37209	8.12572	10302.12973	0.95093	7.50035E-4	1785.53887	40432.271	290.813	8069.434
1307.64	0.86955	0.13045	6.95443	7.6548	-4.4339	22.08781	30.99719	1.66177	0.60177	41.16933	85.53775	15.05939	0.3669	8.16521	12500.61168	0.94492	6.17205E-4	1782.61439	39944.65	 	8463.478
1307.64	0.86955	0.13045	6.95443	7.65479	-4.43392	22.08775	30.99718	1.66177	0.60177	41.16966	85.53784	15.05951	0.3669	8.16522	12500.74575	0.94492	6.17199E-4	1782.61454	39944.642	 	8463.485
1305.0	0.8963	0.1037	6.96392	7.64443	-4.56335	21.75063	31.11185	1.65288	0.60501	47.42441	85.2225	17.4022	0.3626	8.21124	14703.01798	0.93805	5.23876E-4	1779.95345	39524.726	181.509	8778.805
1300.0	0.92944	0.0705618	6.97663	7.63061	-4.73589	21.32379	31.23404	1.64119	0.60931	56.1615	84.98617	20.69049	0.35718	8.29652	18258.09673	0.92547	4.20534E-4	1775.71065	38940.923	116.761	9164.853
1295.0	0.94931	0.0506887	6.98535	7.62119	-4.85342	21.05751	31.28495	1.63331	0.61225	62.0495	85.01325	22.91607	0.35384	8.38131	21245.64435	0.91319	3.6025E-4	1772.11723	38520.293	84.126	9388.146
1294.15	0.95172	0.0482824	6.98654	7.61992	-4.86932	21.02418	31.28829	1.63226	0.61265	62.80949	85.03781	23.20384	0.35343	8.39577	21702.7706	0.91113	3.52472E-4	1771.53747	38457.495	 	9417.551
1290.0	0.96577	0.0342255	6.99282	7.61318	-4.95351	20.84133	31.3184	1.62637	0.61487	67.30889	85.12308	24.91037	0.35102	8.47166	24304.16347	0.90057	3.13911E-4	1767.70701	38129.256	78.2074	9582.26
1285.0	0.97649	0.023507	6.9987	7.60691	-5.03178	20.68895	31.31987	1.62109	0.61687	71.05838	85.34665	26.33528	0.34911	8.56864	27102.48561	0.88753	2.80599E-4	1763.84678	37806.798	64.4916	9708.208
1280.0	0.98346	0.0165353	7.00359	7.60173	-5.09634	20.57668	31.30096	1.61686	0.61848	73.74362	85.64105	27.35712	0.3478	8.67059	29740.90875	0.87428	2.54886E-4	1760.57246	37533.567	54.6462	9785.34
1275.0	0.98832	0.0116762	7.00791	7.59718	-5.15322	20.4868	31.26986	1.61326	0.61986	75.80594	85.97459	28.1426	0.34682	8.7773	32349.5338	0.86087	2.33578E-4	1757.75331	37287.448	49.2238	9835.768
1270.0	0.99189	0.00810661	7.01191	7.59299	-5.20549	20.41018	31.23107	1.61005	0.6211	77.48046	86.33208	28.78074	0.34605	8.88792	35006.51218	0.84741	2.15152E-4	1755.3033	37056.674	46.1548	9871.257
1265.0	0.99463	0.0053724	7.01569	7.58904	-5.2548	20.34199	31.18725	1.60709	0.62224	78.8991	86.70474	29.32161	0.34541	9.00244	37760.82022	0.83392	1.98813E-4	1753.15604	36837.104	43.914	9895.946
1260.0	0.99679	0.0032112	7.01933	7.58525	-5.30209	20.27942	31.13992	1.6043	0.62333	80.14072	87.0879	29.79514	0.34486	9.12071	40649.08932	0.82043	1.84086E-4	1751.26751	36623.636	42.6936	9914.934
1255.0	0.99854	0.00145973	7.02286	7.58158	-5.34794	20.22079	31.09013	1.60163	0.62437	81.25513	87.47857	30.22028	0.34438	9.24253	43700.36193	0.80698	1.70674E-4	1749.59705	36418.083	41.1106	9926.407
1250.0	1.0	0.0	7.02633	7.57799	-5.3928	20.16473	31.0386	1.59904	0.62538	82.27912	87.87456	30.61102	0.34395	 	46942.76342	 	1.58366E-4	 	36215.145	40.5876	9935.662
1245.0	1.0	0.0	7.02881	7.57532	-5.42618	20.14385	30.98	1.5968	0.62625	82.76867	88.29172	30.79744	0.34376	 	50120.9535	 	1.47837E-4	 	35962.887	50.4516	 
1240.0	1.0	0.0	7.03129	7.57265	-5.45949	20.12298	30.92139	1.59456	0.62713	83.25942	88.70916	30.98435	0.34357	 	53538.88408	 	1.37943E-4	 	35770.932	38.391	 
1235.0	1.0	0.0	7.03376	7.56998	-5.49275	20.10211	30.86278	1.59231	0.62802	83.75135	89.12686	31.17175	0.34339	 	57216.41987	 	1.2865E-4	 	35582.26	37.7344	 
1230.0	1.0	0.0	7.03624	7.56732	-5.52595	20.08124	30.80417	1.59005	0.62891	84.24442	89.54478	31.35963	0.3432	 	61175.2148	 	1.19926E-4	 	35393.848	37.6824	 
1225.0	1.0	0.0	7.03871	7.56467	-5.5591	20.06037	30.74555	1.58778	0.62981	84.73863	89.96291	31.54798	0.34301	 	65438.88577	 	1.11739E-4	 	35205.696	37.6304	 
1220.0	1.0	0.0	7.04117	7.56202	-5.59219	20.03951	30.68694	1.5855	0.63071	85.23395	90.38122	31.7368	0.34283	 	70033.2045	 	1.04061E-4	 	35017.808	37.5776	 
1215.0	1.0	0.0	7.04364	7.55937	-5.62523	20.01865	30.62832	1.58322	0.63162	85.73035	90.79969	31.92608	0.34264	 	74986.30946	 	9.68616E-5	 	34830.184	37.5248	 
1210.0	1.0	0.0	7.0461	7.55673	-5.65821	19.99779	30.5697	1.58093	0.63254	86.2278	91.21828	32.1158	0.34245	 	80328.94013	 	9.01156E-5	 	34642.819	37.473	 
1205.0	1.0	0.0	7.04856	7.55409	-5.69113	19.97694	30.51108	1.57862	0.63346	86.7263	91.63699	32.30596	0.34226	 	86094.69608	 	8.37971E-5	 	34455.714	37.421	 
1200.0	1.0	0.0	7.05102	7.55146	-5.724	19.95609	30.45245	1.57631	0.63439	87.22581	92.05577	32.49655	0.34208	 	92320.32371	 	7.78819E-5	 	34268.868	37.3692	 
1195.0	1.0	0.0	7.05347	7.54883	-5.75681	19.93524	30.39382	1.57399	0.63533	87.72632	92.47461	32.68757	0.34189	 	99046.03372	 	7.23469E-5	 	34082.28	37.3176	 
1190.0	1.0	0.0	7.05592	7.54621	-5.78957	19.91439	30.3352	1.57166	0.63627	88.22779	92.89348	32.879	0.3417	 	106315.8529	 	6.71703E-5	 	33895.949	37.2662	 
1185.0	1.0	0.0	7.05837	7.54359	-5.82227	19.89355	30.27656	1.56933	0.63722	88.73021	93.31236	33.07084	0.34152	 	114178.0142	 	6.23313E-5	 	33709.873	37.2152	 
1180.0	1.0	0.0	7.06082	7.54097	-5.85491	19.87271	30.21793	1.56698	0.63817	89.23356	93.73123	33.26307	0.34133	 	122685.3893	 	5.78102E-5	 	33524.052	37.1642	 
1175.0	1.0	0.0	7.06327	7.53836	-5.8875	19.85187	30.15929	1.56462	0.63913	89.73781	94.15006	33.4557	0.34114	 	131895.9692	 	5.35881E-5	 	33338.484	37.1136	 
1170.0	1.0	0.0	7.06571	7.53576	-5.92003	19.83104	30.10066	1.56226	0.6401	90.24294	94.56883	33.6487	0.34096	 	141873.3974	 	4.96475E-5	 	33153.168	37.0632	 
1165.0	1.0	0.0	7.06815	7.53316	-5.95251	19.8102	30.04202	1.55989	0.64107	90.74893	94.98752	33.84208	0.34077	 	152687.563	 	4.59713E-5	 	32968.103	37.013	 
1160.0	1.0	0.0	7.07059	7.53056	-5.98493	19.78938	29.98337	1.5575	0.64205	91.25576	95.4061	34.03583	0.34058	 	164415.2607	 	4.25438E-5	 	32783.288	36.963	 
1155.0	1.0	0.0	7.07302	7.52797	-6.01729	19.76855	29.92473	1.55511	0.64304	91.7634	95.82455	34.22994	0.3404	 	177140.9243	 	3.93497E-5	 	32598.718	36.914	 
1150.0	1.0	0.0	7.07545	7.52538	-6.0496	19.74773	29.86608	1.55271	0.64404	92.27183	96.24285	34.42439	0.34021	 	190957.4446	 	3.63748E-5	 	32414.402	36.8632	 
1145.0	1.0	0.0	7.07788	7.5228	-6.08185	19.72691	29.80743	1.5503	0.64504	92.78104	96.66098	34.61919	0.34002	 	205967.0802	 	3.36056E-5	 	32230.328	36.8148	 
1140.0	1.0	0.0	7.08031	7.52022	-6.11405	19.70609	29.74878	1.54788	0.64605	93.29099	97.07891	34.81432	0.33984	 	222282.4739	 	3.10291E-5	 	32046.5	36.7656	 
1135.0	1.0	0.0	7.08274	7.51764	-6.14619	19.68527	29.69012	1.54545	0.64706	93.80167	97.49662	35.00977	0.33965	 	240027.7862	 	2.86335E-5	 	31862.914	36.7172	 
1130.0	1.0	0.0	7.08516	7.51507	-6.17827	19.66446	29.63147	1.54301	0.64808	94.31305	97.91409	35.20555	0.33946	 	259339.9616	 	2.64071E-5	 	31679.567	36.6694	 
1125.0	1.0	0.0	7.08758	7.51251	-6.2103	19.64365	29.57281	1.54056	0.64911	94.82512	98.3313	35.40163	0.33928	 	280370.1437	 	2.43393E-5	 	31496.469	36.6196	 
1120.0	1.0	0.0	7.08999	7.50995	-6.24228	19.62285	29.51415	1.5381	0.65015	95.33785	98.74823	35.59802	0.33909	 	303285.2569	 	2.24199E-5	 	31313.605	36.5728	 
1115.0	1.0	0.0	7.09241	7.50739	-6.27419	19.60204	29.45548	1.53563	0.6512	95.85123	99.16486	35.7947	0.3389	 	328269.7778	 	2.06392E-5	 	31130.98	36.525	 
1110.0	1.0	0.0	7.09482	7.50484	-6.30606	19.58124	29.39682	1.53316	0.65225	96.36522	99.58116	35.99166	0.33872	 	355527.7176	 	1.89881E-5	 	30948.587	36.4786	 
1105.0	1.0	0.0	7.09723	7.50229	-6.33786	19.56045	29.33815	1.53067	0.65331	96.87981	99.99712	36.18891	0.33853	 	385284.8443	 	1.74583E-5	 	30766.437	36.43	 
1100.0	1.0	0.0	7.09964	7.49975	-6.36961	19.53965	29.27948	1.52817	0.65438	97.39497	100.41271	36.38642	0.33834	 	417791.1751	 	1.60415E-5	 	30584.517	36.384	 
1095.0	1.0	0.0	7.10204	7.49721	-6.40131	19.51886	29.2208	1.52567	0.65545	97.9107	100.82791	36.5842	0.33816	 	453323.7736	 	1.47303E-5	 	30402.829	36.3376	 
1090.0	1.0	0.0	7.10444	7.49467	-6.43294	19.49807	29.16212	1.52315	0.65653	98.42695	101.24271	36.78223	0.33797	 	492189.8909	 	1.35175E-5	 	30221.371	36.2916	 
1085.0	1.0	0.0	7.10684	7.49214	-6.46453	19.47728	29.10345	1.52062	0.65763	98.94372	101.65708	36.98051	0.33778	 	534730.4969	 	1.23965E-5	 	30040.142	36.2458	 
1080.0	1.0	0.0	7.10924	7.48962	-6.49605	19.4565	29.04476	1.51808	0.65873	99.46099	102.071	37.17903	0.3376	 	581324.2525	 	1.13609E-5	 	29859.14	36.2004	 
1075.0	1.0	0.0	7.11163	7.4871	-6.52753	19.43572	28.98608	1.51554	0.65983	99.97872	102.48446	37.37778	0.33741	 	632391.9812	 	1.04049E-5	 	29678.365	36.155	 
1070.0	1.0	0.0	7.11402	7.48458	-6.55894	19.41494	28.92739	1.51298	0.66095	100.49691	102.89743	37.57676	0.33722	 	688401.7062	 	9.5229E-6	 	29497.813	36.1104	 
1065.0	1.0	0.0	7.11641	7.48207	-6.5903	19.39417	28.8687	1.51041	0.66207	101.01552	103.30989	37.77595	0.33703	 	749874.3309	 	8.7097E-6	 	29317.483	36.066	 
1060.0	1.0	0.0	7.1188	7.47956	-6.62161	19.37339	28.81001	1.50783	0.6632	101.53455	103.72182	37.97535	0.33685	 	817390.0476	 	7.96043E-6	 	29137.375	36.0216	 
1055.0	1.0	0.0	7.12118	7.47706	-6.65286	19.35262	28.75132	1.50524	0.66434	102.05396	104.13321	38.17495	0.33666	 	891595.5756	 	7.27053E-6	 	28957.485	35.978	 
1050.0	1.0	0.0	7.12356	7.47456	-6.68405	19.33186	28.69262	1.50265	0.66549	102.57374	104.54404	38.37475	0.33647	 	973212.3415	 	6.63572E-6	 	28777.812	35.9346	 
1045.0	1.0	0.0	7.12594	7.47207	-6.71519	19.31109	28.63392	1.50004	0.66665	103.09387	104.95428	38.57473	0.33629	 	1063045.732	 	6.05201E-6	 	28598.354	35.8916	 
1040.0	1.0	0.0	7.12831	7.46958	-6.74627	19.29033	28.57522	1.49742	0.66782	103.61432	105.36392	38.77489	0.3361	 	1161995.57	 	5.51565E-6	 	28419.11	35.8488	 
1035.0	1.0	0.0	7.13068	7.46709	-6.77729	19.26958	28.51651	1.49479	0.66899	104.13508	105.77293	38.97522	0.33591	 	1271067.983	 	5.02314E-6	 	28240.077	35.8066	 
1030.0	1.0	0.0	7.13305	7.46461	-6.80827	19.24882	28.4578	1.49214	0.67018	104.65613	106.18131	39.17571	0.33573	 	1391388.86	 	4.57122E-6	 	28061.254	35.7646	 
1025.0	1.0	0.0	7.13542	7.46213	-6.83918	19.22807	28.39909	1.48949	0.67137	105.17744	106.58903	39.37636	0.33554	 	1524219.13	 	4.15685E-6	 	27882.638	35.7232	 
1020.0	1.0	0.0	7.13779	7.45966	-6.87004	19.20732	28.34038	1.48683	0.67257	105.699	106.99607	39.57715	0.33535	 	1670972.115	 	3.77717E-6	 	27704.227	35.6822	 
1015.0	1.0	0.0	7.14015	7.4572	-6.90084	19.18657	28.28166	1.48415	0.67378	106.22078	107.40242	39.77809	0.33517	 	1833233.253	 	3.42954E-6	 	27526.02	35.6414	 
1010.0	1.0	0.0	7.14251	7.45473	-6.93159	19.16583	28.22294	1.48147	0.67501	106.74277	107.80806	39.97916	0.33498	 	2012782.552	 	3.11148E-6	 	27348.014	35.6012	 
1005.0	1.0	0.0	7.14486	7.45227	-6.96229	19.14509	28.16422	1.47877	0.67624	107.26494	108.21296	40.18035	0.33479	 	2211620.157	 	2.82071E-6	 	27170.207	35.5614	 
1000.0	1.0	0.0	7.14722	7.44982	-6.99292	19.12435	28.1055	1.47607	0.67748	107.78727	108.61712	40.38166	0.33461	 	2431995.498	 	2.55507E-6	 	26992.597	35.522	 
995.0	1.0	0.0	7.14957	7.44737	-7.0235	19.10361	28.04677	1.47335	0.67873	108.30975	109.02051	40.58309	0.33442	 	2676440.554	 	2.3126E-6	 	26815.176	35.4842	 
990.0	1.0	0.0	7.15192	7.44492	-7.05403	19.08288	27.98804	1.47062	0.67999	108.83236	109.42311	40.78461	0.33423	 	2947807.829	 	2.09143E-6	 	26637.958	35.4436	 
985.0	1.0	0.0	7.15426	7.44248	-7.0845	19.06215	27.92931	1.46788	0.68126	109.35507	109.82492	40.98623	0.33405	 	3249313.782	 	1.88985E-6	 	26460.925	35.4066	 
980.0	1.0	0.0	7.1566	7.44005	-7.11492	19.04142	27.87057	1.46513	0.68254	109.87786	110.2259	41.18794	0.33386	 	3584588.512	 	1.70628E-6	 	26284.078	35.3694	 
975.0	1.0	0.0	7.15894	7.43762	-7.14528	19.0207	27.81183	1.46236	0.68383	110.40072	110.62606	41.38973	0.33367	 	3957732.66	 	1.53924E-6	 	26107.416	35.3324	 
970.0	1.0	0.0	7.16128	7.43519	-7.17558	18.99998	27.75309	1.45959	0.68513	110.92362	111.02535	41.59159	0.33349	 	4373382.653	 	1.38737E-6	 	25930.931	35.297	 
965.0	1.0	0.0	7.16361	7.43277	-7.20583	18.97926	27.69434	1.4568	0.68644	111.44655	111.42378	41.79352	0.3333	 	4836785.565	 	1.2494E-6	 	25754.637	35.2588	 
