T (C)	Fraction solid (wt)-TOTAL	Fraction liquid (wt)-LIQUID	Density (g/(cm)^3)-TOTAL	Molar volume (cm^3)-TOTAL	Volume change (%)-  	Average expansion coeff. (10e-6 1/K)-  	Thermal conductivity (W/(m*K))-TOTAL	Electrical resistivity (10e-6 Ohm*m)-TOTAL	Electrical conductivity (10e6 1/(Ohm*m))-TOTAL	Young's modulus (GPa)-TOTAL	Bulk modulus (GPa)-TOTAL	Shear modulus(GPa)-TOTAL	Poisson's ratio-TOTAL	Liquid viscosity (mPa s)-  	Total viscosity (mPa s)-  	Liquid diffusivity (10e-9 (m^2)/s)-  	Total diffusivity (10e-9 (m^2)/s)-  	Surface Tension (mN/m)-  	Enthalpy (J/mole)-TOTAL	Specific heat (J/(mole K))-TOTAL	Latent heat (J/mole)-TOTAL
1500.0	0.0	1.0	6.99049	7.87127	0.0	29.73852	31.04108	1.86134	0.53725	0.0	106.62143	0.0	0.49542	6.60358	6.60358	1.31055	1.31055	1766.6915	64257.488	 	0.0
1495.0	0.0	1.0	6.99439	7.86689	-0.0556581	29.69686	30.96539	1.86063	0.53745	0.0	106.80551	0.0	0.49542	6.66143	6.66143	1.2955	1.2955	1768.49196	64038.278	43.842	0.0
1490.0	0.0	1.0	6.99827	7.86252	-0.11116	29.65531	30.8897	1.85992	0.53766	0.0	106.9896	0.0	0.49542	6.72012	6.72012	1.28056	1.28056	1770.28937	63819.549	43.7458	0.0
1485.0	0.0	1.0	7.00215	7.85817	-0.16651	29.61387	30.81401	1.8592	0.53787	0.0	107.17368	0.0	0.49542	6.77967	6.77967	1.26571	1.26571	1772.08368	63601.299	43.65	0.0
1480.0	0.0	1.0	7.00603	7.85382	-0.22171	29.57254	30.73831	1.85848	0.53808	0.0	107.35777	0.0	0.49542	6.84008	6.84008	1.25096	1.25096	1773.87485	63383.523	43.5552	0.0
1475.0	0.0	1.0	7.00989	7.84949	-0.27675	29.53133	30.66262	1.85775	0.53829	0.0	107.54186	0.0	0.49542	6.90139	6.90139	1.23631	1.23631	1775.66286	63166.218	43.461	0.0
1470.0	0.0	1.0	7.01375	7.84517	-0.33164	29.49024	30.58693	1.85702	0.5385	0.0	107.72594	0.0	0.49542	6.9636	6.9636	1.22177	1.22177	1777.44766	62949.383	43.367	0.0
1465.0	0.0	1.0	7.01761	7.84086	-0.38637	29.44927	30.51124	1.85629	0.53871	0.0	107.91003	0.0	0.49542	7.02673	7.02673	1.20731	1.20731	1779.22921	62733.014	43.2738	0.0
1460.0	0.0	1.0	7.02145	7.83656	-0.44095	29.40842	30.43555	1.85555	0.53892	0.0	108.09411	0.0	0.49542	7.09081	7.09081	1.19296	1.19296	1781.00746	62517.107	43.1814	0.0
1455.0	0.0	1.0	7.02529	7.83228	-0.49537	29.36769	30.35985	1.85481	0.53914	0.0	108.2782	0.0	0.49542	7.15585	7.15585	1.17871	1.17871	1782.78237	62301.66	43.0894	0.0
1450.0	0.0	1.0	7.02913	7.82801	-0.54964	29.32708	30.28416	1.85407	0.53936	0.0	108.46229	0.0	0.49542	7.22186	7.22186	1.16456	1.16456	1784.5539	62086.703	42.9914	0.0
1445.0	0.0	1.0	7.03295	7.82375	-0.60376	29.28659	30.20847	1.85332	0.53957	0.0	108.64637	0.0	0.49542	7.28888	7.28888	1.1505	1.1505	1786.32201	61872.284	42.8838	0.0
1440.0	0.0	1.0	7.03678	7.8195	-0.65772	29.24623	30.13278	1.85257	0.53979	0.0	108.83046	0.0	0.49542	7.35691	7.35691	1.13655	1.13655	1788.08665	61658.396	42.7776	0.0
1435.0	0.0	1.0	7.04059	7.81527	-0.71153	29.206	30.05709	1.85181	0.54001	0.0	109.01454	0.0	0.49542	7.42598	7.42598	1.12269	1.12269	1789.84778	61445.035	42.6722	0.0
1430.0	0.0	1.0	7.0444	7.81104	-0.76518	29.16589	29.9814	1.85105	0.54023	0.0	109.19863	0.0	0.49542	7.49611	7.49611	1.10893	1.10893	1791.60534	61232.196	42.5678	0.0
1425.0	0.0	1.0	7.0482	7.80683	-0.81868	29.12591	29.9057	1.85029	0.54046	0.0	109.38272	0.0	0.49542	7.56732	7.56732	1.09527	1.09527	1793.35929	61019.878	42.4636	0.0
1420.0	0.0	1.0	7.05199	7.80263	-0.87203	29.08607	29.83001	1.84952	0.54068	0.0	109.5668	0.0	0.49542	7.63964	7.63964	1.08171	1.08171	1795.10959	60808.076	42.3604	0.0
1415.0	0.0	1.0	7.05577	7.79845	-0.92522	29.04635	29.75432	1.84875	0.54091	0.0	109.75089	0.0	0.49542	7.71308	7.71308	1.06824	1.06824	1796.85618	60596.787	42.2578	0.0
1410.85	0.0	1.0	7.05891	7.79498	-0.96929	29.01346	29.69144	1.84811	0.54109	0.0	109.90382	0.0	0.49542	7.77497	7.77497	1.05713	1.05713	1798.30434	60421.658	42.1604	0.0
1410.0	0.03097	0.96903	7.06419	7.78909	-1.0441	28.82743	29.73647	1.84438	0.54219	7.07568E-5	109.68538	2.37234E-5	0.49129	7.78504	8.11899	1.05523	1.01183	1798.00255	60028.019	465.223	357.985
1405.0	0.19601	0.80399	7.09292	7.75768	-1.44313	27.84122	29.97836	1.82407	0.54823	0.1162	108.55268	0.0395477	0.46909	7.84394	25.34589	1.0442	0.32315	1796.33929	57915.265	422.551	2260.465
1400.0	0.32465	0.67535	7.11599	7.73245	-1.76371	27.06301	30.16081	1.80763	0.55321	0.89071	107.73353	0.30681	0.45155	7.9038	132.74233	1.0332	0.0615194	1794.80202	56224.887	338.076	3741.07
1395.0	0.42675	0.57325	7.13494	7.71203	-2.02307	26.4477	30.29976	1.79396	0.55742	2.70078	107.15077	0.93941	0.43748	7.96466	393.84304	1.02224	0.0206728	1793.3746	54842.182	276.541	4914.501
1390.0	0.50908	0.49092	7.15081	7.69492	-2.24042	25.94397	30.40432	1.78244	0.56103	5.54506	106.74134	1.94426	0.426	8.0265	827.68827	1.01133	0.00980734	1792.05388	53688.366	230.763	5859.537
1385.0	0.57643	0.42357	7.1644	7.68039	-2.42512	25.52708	30.48207	1.77254	0.56416	9.22605	106.46626	3.2566	0.41652	8.08889	1426.72845	1.00051	0.00567243	1790.82988	52707.829	196.107	6631.788
1380.0	0.63221	0.36779	7.17618	7.66788	-2.58403	25.1789	30.53832	1.76394	0.56691	13.49561	106.29496	4.79051	0.40858	8.15265	2173.34718	0.98969	0.00371253	1789.69266	51861.043	169.357	7270.776
1375.0	0.6789	0.3211	7.18661	7.65686	-2.72406	24.88093	30.57696	1.75639	0.56935	18.1283	106.20509	6.4658	0.40186	8.21702	3049.08215	0.97897	0.00263824	1788.63887	51118.946	148.419	7805.56
1370.0	0.71839	0.28161	7.19592	7.64703	-2.84883	24.6235	30.60112	1.74968	0.57153	22.94022	106.17942	8.21571	0.39612	8.28267	4037.89622	0.96826	0.00198613	1787.66072	50459.924	131.804	8257.753
1365.0	0.75207	0.24793	7.20438	7.63818	-2.96135	24.39865	30.61337	1.74365	0.57351	27.79538	106.20644	9.98994	0.39117	8.34897	5127.91582	0.95765	0.00155919	1786.75205	49867.655	118.454	8643.672
1364.17	0.75754	0.24246	7.20581	7.63669	-2.9802	24.36059	30.61533	1.74266	0.57383	28.65529	106.21277	10.30498	0.39036	8.36016	5328.10214	0.95589	0.00149985	1786.60271	49771.294	 	8705.996
1360.0	0.78815	0.21185	7.21393	7.62835	-3.08619	24.13728	30.6478	1.73638	0.57591	33.14723	106.14099	11.95957	0.3858	8.40516	6522.90136	0.94835	0.001222	1785.63657	49258.752	121.781	9046.704
1355.0	0.82029	0.17971	7.22305	7.61901	-3.20482	23.89158	30.67269	1.72966	0.57815	38.54108	106.121	13.9543	0.38098	8.4602	8078.77455	0.93929	9.83639E-4	1784.55598	48694.1	112.93	9405.959
1350.0	0.84824	0.15176	7.23165	7.61029	-3.31563	23.66629	30.68469	1.72367	0.58016	43.88523	106.16011	15.93819	0.37673	8.51647	9764.02945	0.93022	8.11365E-4	1783.54239	48174.834	103.853	9720.299
1345.0	0.87275	0.12725	7.23983	7.60204	-3.42045	23.45641	30.686	1.71829	0.58197	49.14897	106.24606	17.89876	0.37297	8.57393	11578.31802	0.92114	6.82119E-4	1782.59154	47693.166	96.3336	9997.507
1340.0	0.89441	0.10559	7.24769	7.59419	-3.5202	23.25947	30.67845	1.7134	0.58363	54.31921	106.37008	19.83015	0.36961	8.6327	13525.29636	0.91204	5.82123E-4	1781.69443	47242.972	90.0388	10243.708
1335.0	0.91373	0.0862677	7.25531	7.5866	-3.61662	23.07063	30.66346	1.70893	0.58516	59.41667	106.52406	21.73923	0.36658	8.69271	15614.36097	0.90294	5.02677E-4	1780.85177	46818.743	84.8458	10464.406
1330.0	0.93121	0.0687865	7.2628	7.57919	-3.71069	22.88713	30.64251	1.70478	0.58659	64.51121	106.70199	23.65128	0.3638	8.75434	17864.48253	0.89379	4.37996E-4	1780.05439	46415.394	80.6698	10664.684
1327.69	0.93867	0.0613281	7.26621	7.57583	-3.75342	22.80403	30.63081	1.70297	0.58721	66.86261	106.79201	24.53488	0.3626	8.78296	18957.47581	0.8896	4.12148E-4	1779.69484	46235.493	 	10750.766
1325.0	0.9496	0.0503955	7.27115	7.57098	-3.815	22.6725	30.62301	1.70054	0.58805	70.46432	106.88047	25.88944	0.36087	8.82261	20492.99664	0.88411	3.80626E-4	1779.97192	45996.271	83.8246	10881.194
1320.0	0.96824	0.0317571	7.27997	7.56239	-3.9242	22.44197	30.60294	1.69633	0.58951	77.77113	107.06546	28.63691	0.35788	8.89796	23501.6835	0.87388	3.3086E-4	1780.49297	45571.622	84.9298	11103.683
1315.0	0.98485	0.0151474	7.28836	7.55426	-4.02746	22.227	30.5764	1.69248	0.59085	86.72004	107.27408	31.99578	0.35518	8.9751	26710.14351	0.86365	2.90203E-4	1781.01772	45170.698	80.1848	11302.898
1310.0	1.0	0.0	7.2965	7.54643	-4.12696	22.02141	30.54542	1.68886	0.59212	95.02269	107.50034	35.1239	0.35268	 	30163.52277	 	2.56169E-4	 	44787.521	76.6354	11484.816
1305.0	1.0	0.0	7.29918	7.54366	-4.1621	22.0039	30.47936	1.68718	0.59271	95.44028	107.81821	35.28377	0.35247	 	32131.34685	 	2.39721E-4	 	44545.186	48.467	 
1300.0	1.0	0.0	7.30185	7.5409	-4.19718	21.98641	30.41331	1.68548	0.5933	95.85758	108.13486	35.44357	0.35226	 	34241.326	 	2.24236E-4	 	44354.39	38.1592	 
1295.0	1.0	0.0	7.30452	7.53814	-4.2322	21.96894	30.34725	1.68378	0.5939	96.27461	108.4503	35.60333	0.35204	 	36504.69007	 	2.09665E-4	 	44163.906	38.0968	 
1290.0	1.0	0.0	7.30719	7.53539	-4.26718	21.95149	30.2812	1.68207	0.5945	96.69135	108.76451	35.76303	0.35183	 	38933.62997	 	1.95958E-4	 	43973.722	38.0368	 
1285.0	1.0	0.0	7.30986	7.53264	-4.3021	21.93406	30.21514	1.68036	0.59511	97.10781	109.07752	35.92268	0.35162	 	41541.38612	 	1.83069E-4	 	43783.838	37.9768	 
1280.0	1.0	0.0	7.31252	7.5299	-4.33696	21.91666	30.14909	1.67864	0.59572	97.52399	109.38932	36.08227	0.35141	 	44342.34562	 	1.70955E-4	 	43594.248	37.918	 
1275.0	1.0	0.0	7.31518	7.52716	-4.37177	21.89927	30.08303	1.67691	0.59634	97.93988	109.69991	36.24181	0.3512	 	47352.14901	 	1.59573E-4	 	43404.952	37.8592	 
1270.0	1.0	0.0	7.31784	7.52442	-4.40653	21.88191	30.01698	1.67517	0.59695	98.35549	110.00931	36.40129	0.35099	 	50587.80768	 	1.48884E-4	 	43215.951	37.8002	 
1265.0	1.0	0.0	7.3205	7.52169	-4.44124	21.86457	29.95092	1.67342	0.59758	98.77082	110.31751	36.56072	0.35078	 	54067.83302	 	1.3885E-4	 	43027.244	37.7414	 
1260.0	1.0	0.0	7.32316	7.51896	-4.47589	21.84725	29.88487	1.67167	0.5982	99.18586	110.62453	36.72008	0.35057	 	57812.37854	 	1.29435E-4	 	42838.831	37.6826	 
1255.0	1.0	0.0	7.32581	7.51624	-4.51049	21.82996	29.81881	1.66991	0.59883	99.60061	110.93035	36.8794	0.35036	 	61843.39647	 	1.20603E-4	 	42650.713	37.6236	 
1250.0	1.0	0.0	7.32846	7.51352	-4.54504	21.81268	29.75276	1.66814	0.59947	100.01507	111.235	37.03865	0.35014	 	66184.81022	 	1.12324E-4	 	42462.89	37.5646	 
1245.0	1.0	0.0	7.33111	7.51081	-4.57953	21.79543	29.6867	1.66637	0.60011	100.42924	111.53846	37.19785	0.34993	 	70862.70455	 	1.04564E-4	 	42275.361	37.5058	 
1240.0	1.0	0.0	7.33376	7.50809	-4.61398	21.7782	29.62064	1.66458	0.60075	100.84313	111.84075	37.35699	0.34972	 	75905.53534	 	9.72961E-5	 	42088.119	37.4484	 
1235.0	1.0	0.0	7.3364	7.50539	-4.64836	21.76099	29.55459	1.66279	0.6014	101.25672	112.14188	37.51608	0.34951	 	81344.3611	 	9.04907E-5	 	41901.162	37.3914	 
1230.0	1.0	0.0	7.33905	7.50268	-4.6827	21.7438	29.48853	1.66099	0.60205	101.67002	112.44183	37.6751	0.3493	 	87213.09861	 	8.41216E-5	 	41714.488	37.3348	 
1225.0	1.0	0.0	7.34169	7.49999	-4.71698	21.72664	29.42247	1.65918	0.60271	102.08303	112.74062	37.83407	0.34909	 	93548.80539	 	7.81635E-5	 	41528.097	37.2782	 
1220.0	1.0	0.0	7.34432	7.49729	-4.75122	21.70949	29.35642	1.65736	0.60337	102.49575	113.03826	37.99298	0.34888	 	100391.992	 	7.25924E-5	 	41341.989	37.2216	 
1215.0	1.0	0.0	7.34696	7.4946	-4.7854	21.69237	29.29036	1.65554	0.60403	102.90817	113.33474	38.15183	0.34867	 	107786.9674	 	6.73856E-5	 	41156.163	37.1652	 
1210.0	1.0	0.0	7.3496	7.49192	-4.81952	21.67527	29.2243	1.65371	0.6047	103.3203	113.63007	38.31062	0.34846	 	115782.2212	 	6.25216E-5	 	40970.618	37.109	 
1205.0	1.0	0.0	7.35223	7.48923	-4.8536	21.65819	29.15825	1.65187	0.60538	103.73213	113.92426	38.46935	0.34824	 	124430.8475	 	5.79799E-5	 	40785.354	37.0528	 
1200.0	1.0	0.0	7.35486	7.48656	-4.88762	21.64113	29.09219	1.65002	0.60605	104.14367	114.2173	38.62802	0.34803	 	133791.0133	 	5.37411E-5	 	40600.371	36.9966	 
1195.0	1.0	0.0	7.35749	7.48388	-4.92159	21.6241	29.02613	1.64816	0.60674	104.55491	114.50921	38.78663	0.34782	 	143926.4792	 	4.97871E-5	 	40415.669	36.9404	 
1190.0	1.0	0.0	7.36011	7.48121	-4.95551	21.60709	28.96007	1.64629	0.60743	104.96585	114.79998	38.94517	0.34761	 	154907.1764	 	4.61003E-5	 	40231.245	36.8848	 
1185.0	1.0	0.0	7.36273	7.47855	-4.98938	21.59009	28.89401	1.64442	0.60812	105.3765	115.08962	39.10366	0.3474	 	166809.8473	 	4.26646E-5	 	40047.102	36.8286	 
1180.0	1.0	0.0	7.36536	7.47588	-5.02319	21.57312	28.82796	1.64253	0.60882	105.78684	115.37813	39.26209	0.34719	 	179718.757	 	3.94642E-5	 	39863.236	36.7732	 
1175.0	1.0	0.0	7.36798	7.47323	-5.05696	21.55618	28.7619	1.64064	0.60952	106.19689	115.66552	39.42045	0.34698	 	193726.4841	 	3.64847E-5	 	39679.649	36.7174	 
1170.0	1.0	0.0	7.37059	7.47057	-5.09067	21.53925	28.69584	1.63874	0.61022	106.60663	115.95179	39.57875	0.34677	 	208934.8007	 	3.37122E-5	 	39496.34	36.6618	 
1165.0	1.0	0.0	7.37321	7.46792	-5.12433	21.52234	28.62978	1.63683	0.61094	107.01607	116.23694	39.73699	0.34655	 	225455.6508	 	3.11336E-5	 	39313.308	36.6064	 
1160.0	1.0	0.0	7.37582	7.46528	-5.15794	21.50546	28.56372	1.63491	0.61165	107.42521	116.52099	39.89517	0.34634	 	243412.2403	 	2.87366E-5	 	39130.553	36.551	 
1155.0	1.0	0.0	7.37843	7.46264	-5.1915	21.4886	28.49766	1.63299	0.61238	107.83405	116.80393	40.05329	0.34613	 	262940.252	 	2.65096E-5	 	38948.075	36.4956	 
1150.0	1.0	0.0	7.38104	7.46	-5.225	21.47176	28.4316	1.63105	0.6131	108.24259	117.08576	40.21134	0.34592	 	284189.1992	 	2.44416E-5	 	38765.872	36.4406	 
1145.0	1.0	0.0	7.38365	7.45737	-5.25846	21.45494	28.36554	1.6291	0.61383	108.65082	117.36649	40.36933	0.34571	 	307323.9369	 	2.25223E-5	 	38583.945	36.3854	 
1140.0	1.0	0.0	7.38625	7.45474	-5.29186	21.43815	28.29948	1.62715	0.61457	109.05874	117.64613	40.52725	0.3455	 	332526.3487	 	2.07419E-5	 	38402.292	36.3306	 
1135.0	1.0	0.0	7.38885	7.45211	-5.32522	21.42137	28.23342	1.62519	0.61531	109.46636	117.92467	40.68511	0.34529	 	359997.2311	 	1.90913E-5	 	38220.914	36.2756	 
1130.0	1.0	0.0	7.39145	7.44949	-5.35852	21.40462	28.16736	1.62321	0.61606	109.87367	118.20212	40.84291	0.34508	 	389958.4006	 	1.75619E-5	 	38039.81	36.2208	 
1125.0	1.0	0.0	7.39405	7.44687	-5.39177	21.38789	28.1013	1.62123	0.61681	110.28068	118.47849	41.00064	0.34487	 	422655.0505	 	1.61456E-5	 	37858.98	36.166	 
1120.0	1.0	0.0	7.39665	7.44426	-5.42498	21.37118	28.03524	1.61924	0.61757	110.68737	118.75378	41.1583	0.34465	 	458358.3895	 	1.48347E-5	 	37678.422	36.1116	 
1115.0	1.0	0.0	7.39924	7.44165	-5.45813	21.35449	27.96918	1.61724	0.61834	111.09376	119.02798	41.3159	0.34444	 	497368.5976	 	1.36221E-5	 	37498.137	36.057	 
1110.0	1.0	0.0	7.40183	7.43904	-5.49123	21.33783	27.90312	1.61523	0.61911	111.49984	119.30112	41.47344	0.34423	 	540018.1398	 	1.25011E-5	 	37318.124	36.0026	 
1105.0	1.0	0.0	7.40442	7.43644	-5.52428	21.32118	27.83706	1.61321	0.61988	111.90561	119.57318	41.63091	0.34402	 	586675.4836	 	1.14653E-5	 	37138.383	35.9482	 
1100.0	1.0	0.0	7.40701	7.43384	-5.55728	21.30456	27.77099	1.61118	0.62066	112.31106	119.84418	41.78831	0.34381	 	637749.2723	 	1.05088E-5	 	36958.913	35.894	 
1095.0	1.0	0.0	7.40959	7.43125	-5.59023	21.28796	27.70493	1.60914	0.62145	112.71621	120.11411	41.94565	0.3436	 	693693.0136	 	9.62616E-6	 	36779.713	35.84	 
1090.0	1.0	0.0	7.41218	7.42866	-5.62313	21.27138	27.63887	1.60709	0.62224	113.12104	120.38298	42.10292	0.34339	 	755010.3511	 	8.81206E-6	 	36600.784	35.7858	 
1085.0	1.0	0.0	7.41476	7.42608	-5.65598	21.25482	27.57281	1.60503	0.62304	113.52556	120.6508	42.26012	0.34318	 	822260.9948	 	8.06167E-6	 	36422.124	35.732	 
1080.0	1.0	0.0	7.41734	7.42349	-5.68878	21.23829	27.50675	1.60297	0.62384	113.92977	120.91756	42.41725	0.34296	 	896067.3994	 	7.37042E-6	 	36243.733	35.6782	 
1075.0	1.0	0.0	7.41991	7.42092	-5.72152	21.22178	27.44068	1.60089	0.62465	114.33366	121.18327	42.57432	0.34275	 	977122.2882	 	6.73404E-6	 	36065.611	35.6244	 
1070.0	1.0	0.0	7.42249	7.41834	-5.75422	21.20528	27.37462	1.5988	0.62547	114.73724	121.44794	42.73132	0.34254	 	1066197.139	 	6.14856E-6	 	35887.758	35.5706	 
1065.0	1.0	0.0	7.42506	7.41577	-5.78687	21.18881	27.30856	1.5967	0.62629	115.1405	121.71156	42.88825	0.34233	 	1164151.758	 	5.61025E-6	 	35710.172	35.5172	 
1060.0	1.0	0.0	7.42763	7.41321	-5.81947	21.17237	27.24249	1.59459	0.62712	115.54344	121.97414	43.04511	0.34212	 	1271945.098	 	5.11561E-6	 	35532.853	35.4638	 
1055.0	1.0	0.0	7.4302	7.41064	-5.85203	21.15594	27.17643	1.59247	0.62795	115.94607	122.23569	43.20191	0.34191	 	1390647.478	 	4.6614E-6	 	35355.802	35.4102	 
1050.0	1.0	0.0	7.43276	7.40809	-5.88453	21.13954	27.11037	1.59035	0.62879	116.34838	122.49621	43.35863	0.3417	 	1521454.413	 	4.2446E-6	 	35179.016	35.3572	 
1045.0	1.0	0.0	7.43533	7.40553	-5.91698	21.12315	27.0443	1.58821	0.62964	116.75037	122.7557	43.51529	0.34149	 	1665702.269	 	3.86237E-6	 	35002.497	35.3038	 
1040.0	1.0	0.0	7.43789	7.40298	-5.94938	21.10679	26.97824	1.58606	0.63049	117.15205	123.01416	43.67188	0.34128	 	1824885.995	 	3.51209E-6	 	34826.242	35.251	 
1035.0	1.0	0.0	7.44045	7.40043	-5.98174	21.09045	26.91217	1.5839	0.63135	117.5534	123.2716	43.82839	0.34106	 	2000679.24	 	3.19129E-6	 	34650.253	35.1978	 
1030.0	1.0	0.0	7.44301	7.39789	-6.01404	21.07413	26.84611	1.58172	0.63222	117.95443	123.52802	43.98484	0.34085	 	2194957.173	 	2.89771E-6	 	34474.528	35.145	 
1025.0	1.0	0.0	7.44556	7.39535	-6.0463	21.05784	26.78004	1.57954	0.63309	118.35515	123.78343	44.14121	0.34064	 	2409822.411	 	2.62922E-6	 	34299.067	35.0922	 
1020.0	1.0	0.0	7.44811	7.39282	-6.0785	21.04156	26.71398	1.57735	0.63397	118.75554	124.03782	44.29752	0.34043	 	2647634.489	 	2.38384E-6	 	34123.869	35.0396	 
1015.0	1.0	0.0	7.45066	7.39029	-6.11066	21.02531	26.64791	1.57515	0.63486	119.1556	124.29121	44.45375	0.34022	 	2911043.39	 	2.15975E-6	 	33948.935	34.9868	 
1010.0	1.0	0.0	7.45321	7.38776	-6.14277	21.00908	26.58185	1.57293	0.63576	119.55535	124.54359	44.60992	0.34001	 	3203027.734	 	1.95526E-6	 	33774.262	34.9346	 
1005.0	1.0	0.0	7.45576	7.38524	-6.17483	20.99287	26.51578	1.57071	0.63666	119.95477	124.79497	44.76601	0.3398	 	3526938.291	 	1.76877E-6	 	33599.852	34.882	 
1000.0	1.0	0.0	7.45831	7.38272	-6.20684	20.97668	26.44972	1.56847	0.63756	120.35387	125.04535	44.92203	0.33959	 	3886547.635	 	1.59883E-6	 	33425.703	34.8298	 
995.0	1.0	0.0	7.46085	7.3802	-6.2388	20.96052	26.38365	1.56622	0.63848	120.75264	125.29474	45.07797	0.33938	 	4286106.825	 	1.44409E-6	 	33251.816	34.7774	 
990.0	1.0	0.0	7.46339	7.37769	-6.27072	20.94438	26.31758	1.56396	0.6394	121.15109	125.54313	45.23385	0.33916	 	4730410.186	 	1.3033E-6	 	33078.188	34.7256	 
985.0	1.0	0.0	7.46593	7.37518	-6.30258	20.92825	26.25152	1.56169	0.64033	121.54921	125.79054	45.38965	0.33895	 	5224869.41	 	1.17529E-6	 	32904.821	34.6734	 
980.0	1.0	0.0	7.46846	7.37267	-6.3344	20.91215	26.18545	1.55941	0.64127	121.94701	126.03696	45.54538	0.33874	 	5775598.392	 	1.05899E-6	 	32731.713	34.6216	 
975.0	1.0	0.0	7.471	7.37017	-6.36617	20.89607	26.11938	1.55712	0.64221	122.34447	126.28239	45.70104	0.33853	 	6389510.457	 	9.53424E-7	 	32558.864	34.5698	 
970.0	1.0	0.0	7.47353	7.36768	-6.39789	20.88002	26.05331	1.55481	0.64316	122.74161	126.52685	45.85662	0.33832	 	7074429.876	 	8.57667E-7	 	32386.274	34.518	 
965.0	1.0	0.0	7.47606	7.36518	-6.42957	20.86398	25.98725	1.5525	0.64412	123.13842	126.77033	46.01213	0.33811	 	7839219.92	 	7.70881E-7	 	32213.942	34.4664	 
960.0	1.0	0.0	7.47859	7.36269	-6.46119	20.84797	25.92118	1.55017	0.64509	123.5349	127.01284	46.16756	0.3379	 	8693930.013	 	6.92287E-7	 	32041.868	34.4148	 
955.0	1.0	0.0	7.48111	7.36021	-6.49277	20.83198	25.85511	1.54783	0.64607	123.93105	127.25438	46.32293	0.33769	 	9649965.031	 	6.21173E-7	 	31870.05	34.3636	 
950.0	1.0	0.0	7.48364	7.35773	-6.5243	20.81601	25.78904	1.54548	0.64705	124.32687	127.49495	46.47821	0.33747	 	1.072028025E7	 	5.56878E-7	 	31698.489	34.3122	 
945.0	1.0	0.0	7.48616	7.35525	-6.55578	20.80006	25.72297	1.54311	0.64804	124.72236	127.73456	46.63342	0.33726	 	1.191960606E7	 	4.98799E-7	 	31527.184	34.261	 
940.0	1.0	0.0	7.48868	7.35277	-6.58722	20.78413	25.6569	1.54074	0.64904	125.11752	127.97321	46.78856	0.33705	 	1.326470728E7	 	4.46379E-7	 	31356.135	34.2098	 
935.0	1.0	0.0	7.49119	7.3503	-6.61861	20.76823	25.59083	1.53835	0.65005	125.51235	128.2109	46.94362	0.33684	 	1.47746826E7	 	3.99107E-7	 	31185.341	34.1588	 
