T (C)	Fraction solid (wt)-TOTAL	Fraction liquid (wt)-LIQUID	Density (g/(cm)^3)-TOTAL	Molar volume (cm^3)-TOTAL	Volume change (%)-  	Average expansion coeff. (10e-6 1/K)-  	Thermal conductivity (W/(m*K))-TOTAL	Electrical resistivity (10e-6 Ohm*m)-TOTAL	Electrical conductivity (10e6 1/(Ohm*m))-TOTAL	Young's modulus (GPa)-TOTAL	Bulk modulus (GPa)-TOTAL	Shear modulus(GPa)-TOTAL	Poisson's ratio-TOTAL	Liquid viscosity (mPa s)-  	Total viscosity (mPa s)-  	Liquid diffusivity (10e-9 (m^2)/s)-  	Total diffusivity (10e-9 (m^2)/s)-  	Surface Tension (mN/m)-  	Enthalpy (J/mole)-TOTAL	Specific heat (J/(mole K))-TOTAL	Latent heat (J/mole)-TOTAL
1500.0	0.0	1.0	7.09815	7.88746	0.0	28.70907	30.32491	1.9053	0.52485	0.0	110.27472	0.0	0.49674	6.90192	6.90192	1.2539	1.2539	1800.96833	64163.97	 	0.0
1495.0	0.0	1.0	7.10205	7.88313	-0.0549124	28.66638	30.24915	1.90469	0.52502	0.0	110.45733	0.0	0.49674	6.96388	6.96388	1.23924	1.23924	1802.88434	63945.759	43.6422	0.0
1490.0	0.0	1.0	7.10594	7.87881	-0.10967	28.62379	30.17338	1.90407	0.52519	0.0	110.63994	0.0	0.49674	7.02675	7.02675	1.22468	1.22468	1804.7984	63727.992	43.5534	0.0
1485.0	0.0	1.0	7.10983	7.87451	-0.16428	28.58131	30.09762	1.90345	0.52536	0.0	110.82255	0.0	0.49674	7.09055	7.09055	1.21022	1.21022	1806.7105	63510.666	43.4652	0.0
1480.0	0.0	1.0	7.11371	7.87021	-0.21873	28.53892	30.02186	1.90283	0.52553	0.0	111.00517	0.0	0.49674	7.1553	7.1553	1.19585	1.19585	1808.62062	63293.778	43.3776	0.0
1475.0	0.0	1.0	7.11758	7.86593	-0.27304	28.49664	29.9461	1.9022	0.52571	0.0	111.18778	0.0	0.49674	7.22102	7.22102	1.18159	1.18159	1810.52872	63077.326	43.2904	0.0
1470.0	0.0	1.0	7.12145	7.86166	-0.32719	28.45446	29.87033	1.90157	0.52588	0.0	111.37039	0.0	0.49674	7.28772	7.28772	1.16743	1.16743	1812.4348	62861.307	43.2038	0.0
1465.0	0.0	1.0	7.12531	7.8574	-0.38118	28.41239	29.79457	1.90094	0.52606	0.0	111.553	0.0	0.49674	7.35543	7.35543	1.15336	1.15336	1814.33881	62645.719	43.1176	0.0
1460.0	0.0	1.0	7.12916	7.85315	-0.43503	28.37043	29.71881	1.9003	0.52623	0.0	111.73561	0.0	0.49674	7.42417	7.42417	1.1394	1.1394	1816.24073	62430.558	43.0322	0.0
1455.0	0.0	1.0	7.13301	7.84892	-0.48872	28.32857	29.64304	1.89966	0.52641	0.0	111.91822	0.0	0.49674	7.49395	7.49395	1.12553	1.12553	1818.14053	62215.822	42.9472	0.0
1450.0	0.0	1.0	7.13685	7.84469	-0.54226	28.28681	29.56728	1.89902	0.52659	0.0	112.10083	0.0	0.49674	7.56479	7.56479	1.11176	1.11176	1820.03819	62001.555	42.8534	0.0
1445.0	0.0	1.0	7.14068	7.84048	-0.59565	28.24517	29.49152	1.89837	0.52677	0.0	112.28344	0.0	0.49674	7.63673	7.63673	1.0981	1.0981	1821.93368	61787.832	42.7446	0.0
1440.0	0.0	1.0	7.14451	7.83628	-0.64888	28.20364	29.41576	1.89772	0.52695	0.0	112.46605	0.0	0.49674	7.70977	7.70977	1.08453	1.08453	1823.82697	61574.641	42.6382	0.0
1435.0	0.0	1.0	7.14833	7.8321	-0.70197	28.16222	29.33999	1.89707	0.52713	0.0	112.64866	0.0	0.49674	7.78395	7.78395	1.07106	1.07106	1825.71803	61361.978	42.5326	0.0
1430.0	0.0	1.0	7.15214	7.82792	-0.7549	28.12092	29.26423	1.89642	0.52731	0.0	112.83127	0.0	0.49674	7.85928	7.85928	1.05769	1.05769	1827.60682	61149.841	42.4274	0.0
1425.0	0.0	1.0	7.15595	7.82376	-0.80767	28.07973	29.18847	1.89576	0.52749	0.0	113.01388	0.0	0.49674	7.93579	7.93579	1.04441	1.04441	1829.49333	60938.226	42.323	0.0
1420.0	0.0	1.0	7.15974	7.81961	-0.8603	28.03865	29.1127	1.89509	0.52768	0.0	113.19649	0.0	0.49674	8.01351	8.01351	1.03124	1.03124	1831.37751	60727.13	42.2192	0.0
1415.0	0.0	1.0	7.16354	7.81547	-0.91277	27.99769	29.03694	1.89443	0.52786	0.0	113.3791	0.0	0.49674	8.09245	8.09245	1.01816	1.01816	1833.25933	60516.548	42.1164	0.0
1410.0	0.0	1.0	7.16732	7.81134	-0.96509	27.95685	28.96118	1.89376	0.52805	0.0	113.56171	0.0	0.49674	8.17265	8.17265	1.00519	1.00519	1835.13877	60306.478	42.014	0.0
1405.0	0.0	1.0	7.1711	7.80723	-1.01726	27.91612	28.88541	1.89308	0.52824	0.0	113.74432	0.0	0.49674	8.25412	8.25412	0.99231	0.99231	1837.01579	60096.915	41.9126	0.0
1403.17	0.0	1.0	7.17248	7.80572	-1.03632	27.90124	28.85767	1.89284	0.52831	0.0	113.81119	0.0	0.49674	8.28428	8.28428	0.98762	0.98762	1837.70244	60020.326	41.8355	0.0
1400.0	0.10755	0.89245	7.19008	7.78651	-1.27996	27.29988	29.03719	1.87758	0.5326	0.0112333	113.30117	0.00378969	0.48209	8.34393	11.3979	0.9787	0.71647	1837.69699	58630.15	438.641	1257.702
1395.0	0.24923	0.75077	7.21366	7.76107	-1.6024	26.51532	29.27219	1.85694	0.53852	0.32951	112.67137	0.11265	0.4626	8.43934	65.89815	0.96475	0.12355	1837.7255	56769.699	372.09	2909.595
1390.0	0.36119	0.63881	7.23287	7.74045	-1.86389	25.89275	29.45291	1.84001	0.54347	1.47489	112.23069	0.50963	0.44703	8.53604	266.14029	0.95096	0.0305005	1837.7874	55259.834	301.973	4211.396
1385.0	0.45114	0.54886	7.24885	7.72338	-2.08028	25.39021	29.59234	1.82584	0.54769	3.63547	111.93285	1.26726	0.43438	8.63403	664.80825	0.93734	0.0121735	1837.87811	54009.654	250.036	5254.009
1380.0	0.52444	0.47556	7.26243	7.7089	-2.26385	24.97494	29.69918	1.81378	0.55133	6.71352	111.74353	2.35731	0.42398	8.73284	1270.74128	0.92394	0.00634953	1837.9947	52955.607	210.809	6100.979
1375.0	0.58492	0.41508	7.27408	7.69647	-2.42149	24.62876	29.77987	1.8034	0.55451	10.49316	111.63839	3.70701	0.41531	8.83331	2070.54902	0.91067	0.00388506	1838.1326	52052.19	180.683	6797.809
1370.0	0.63539	0.36461	7.28431	7.68561	-2.5591	24.33596	29.83942	1.79434	0.55731	14.74384	111.60061	5.23569	0.40801	8.93466	3043.55938	0.89761	0.00263501	1838.28843	51266.107	157.217	7377.788
1365.0	0.67791	0.32209	7.29339	7.67595	-2.68164	24.08322	29.88141	1.78637	0.5598	19.26804	111.61534	6.87262	0.4018	9.03722	4169.99394	0.88472	0.00191737	1838.46084	50572.682	138.685	7865.592
1360.0	0.71409	0.28591	7.30154	7.66731	-2.79114	23.86527	29.90898	1.77927	0.56203	23.90592	111.67386	8.55945	0.39646	9.14108	5432.84491	0.872	0.00146719	1838.64491	49953.318	123.873	8279.813
1355.0	0.7451	0.2549	7.30897	7.65941	-2.89128	23.67214	29.92435	1.77291	0.56404	28.54728	111.76641	10.25523	0.39184	9.24625	6820.89727	0.85944	0.00116504	1838.84095	49393.807	111.902	8634.657
1350.0	0.77189	0.22811	7.31581	7.65218	-2.98305	23.50127	29.92955	1.76716	0.56588	33.10947	111.88819	11.92871	0.38781	9.3527	8326.18459	0.84705	9.51479E-4	1839.0445	48883.159	102.13	8941.112
1345.0	0.7952	0.2048	7.32216	7.64543	-3.06861	23.34677	29.926	1.76193	0.56756	37.54015	112.03314	13.55968	0.38426	9.46053	9944.85605	0.83481	7.94158E-4	1839.25613	48412.773	94.0772	9207.775
1340.25	0.8164	0.1836	7.3283	7.63886	-3.15189	23.19323	29.92088	1.75705	0.56913	41.9725	112.17927	15.19633	0.38101	9.5642	11686.4301	0.82334	6.73824E-4	1839.46001	47979.44	 	9447.98
1340.0	0.81769	0.18231	7.32866	7.63846	-3.15691	23.18328	29.92251	1.75669	0.56925	42.19966	112.18253	15.28077	0.38081	9.56871	11792.43008	0.82283	6.67664E-4	1839.44561	47955.163	91.522	9462.13
1335.0	0.84239	0.15761	7.33596	7.63062	-3.25641	22.98644	29.95026	1.74962	0.57155	46.81874	112.266	17.00043	0.37699	9.65713	14041.4488	0.81277	5.58987E-4	1839.17594	47481.073	94.818	9733.429
1330.0	0.86395	0.13605	7.3429	7.62316	-3.35095	22.80235	29.96432	1.74336	0.5736	51.2771	112.38683	18.66498	0.37362	9.74693	16444.5422	0.80277	4.75816E-4	1838.91842	47040.187	88.1772	9971.988
1325.0	0.88293	0.11707	7.34957	7.61598	-3.44199	22.62695	29.9671	1.73776	0.57545	55.58986	112.53714	20.27911	0.37062	9.8379	19011.22219	0.79287	4.10293E-4	1838.67135	46626.546	82.7282	10183.76
1320.0	0.89975	0.10025	7.35603	7.60906	-3.52974	22.45975	29.96047	1.73271	0.57713	59.7662	112.71176	21.84545	0.36793	9.93074	21750.34111	0.783	3.57501E-4	1838.42696	46235.967	78.1158	10372.925
1315.0	0.9148	0.085201	7.36236	7.60227	-3.61578	22.29624	29.94591	1.72811	0.57867	63.84686	112.90537	23.37859	0.3655	10.02469	24679.12183	0.77323	3.14086E-4	1838.18935	45864.468	74.2998	10543.464
1310.0	0.92836	0.0716423	7.36859	7.5956	-3.7003	22.13589	29.92472	1.72389	0.58008	67.87386	113.11481	24.89359	0.36328	10.12023	27814.67451	0.76352	2.77802E-4	1837.95258	45509.113	71.071	10698.31
1309.62	0.92929	0.0707068	7.36904	7.59511	-3.70657	22.12406	29.92276	1.72359	0.58018	68.1671	113.13131	25.00399	0.36312	10.12736	28056.30415	0.7628	2.75343E-4	1837.93529	45483.15	 	10709.162
1305.0	0.94437	0.0556257	7.37628	7.58735	-3.80498	21.91513	29.91234	1.71916	0.58168	73.08025	113.31492	26.85426	0.36068	10.23769	31644.33831	0.75237	2.4341E-4	1838.49345	45117.639	78.2948	10889.724
1300.0	0.95898	0.0410244	7.38377	7.57929	-3.90707	21.70026	29.89292	1.71482	0.58315	78.7718	113.52946	28.99679	0.35828	10.35889	35775.23783	0.74121	2.14622E-4	1839.09617	44741.761	75.1756	11065.987
1295.0	0.97208	0.0279178	7.39097	7.57154	-4.00536	21.49493	29.86664	1.71088	0.5845	85.28808	113.75776	31.44605	0.3561	10.48239	40191.01115	0.73015	1.90434E-4	1839.69072	44382.899	71.7724	11225.677
1290.0	0.98397	0.0160316	7.39797	7.564	-4.10098	21.29593	29.83502	1.70723	0.58574	92.72877	113.9967	34.24021	0.35409	10.60825	44925.99598	0.71919	1.6982E-4	1840.27818	44038.085	68.9628	11371.759
1286.84	0.99089	0.00910867	7.40229	7.55934	-4.16012	21.17314	29.8126	1.70506	0.58649	97.19135	114.15261	35.91946	0.35291	10.68956	48088.85248	0.71228	1.58331E-4	1840.64198	43826.734	 	11457.84
1286.84	0.99089	0.00910867	7.40229	7.55934	-4.16012	21.17314	29.8126	1.70506	0.58649	97.19135	114.15261	35.91946	0.35291	10.68956	48088.85878	0.71228	1.58331E-4	1840.64198	43826.734	 	11457.84
1285.0	0.99332	0.00667506	7.40423	7.55731	-4.18579	21.12756	29.79306	1.70417	0.5868	98.67042	114.25722	36.47813	0.35246	10.71634	49730.13393	0.70966	1.52924E-4	1840.36454	43711.115	65.394	11500.435
1280.0	1.0	0.0	7.40967	7.55163	-4.25775	20.99634	29.73982	1.70174	0.58763	102.23922	114.53903	37.83189	0.35123	 	54491.65077	 	1.39114E-4	 	43399.74	62.275	11613.951
1275.0	1.0	0.0	7.41231	7.54895	-4.29184	20.97787	29.67119	1.70018	0.58817	102.65149	114.84407	37.99015	0.35103	 	58224.47959	 	1.29776E-4	 	43124.037	55.1406	 
1270.0	1.0	0.0	7.41494	7.54626	-4.32587	20.95942	29.60255	1.69862	0.58871	103.06344	115.14791	38.14834	0.35082	 	62239.78261	 	1.21012E-4	 	42935.337	37.74	 
1265.0	1.0	0.0	7.41758	7.54358	-4.35985	20.94099	29.53392	1.69705	0.58926	103.47506	115.45058	38.30647	0.35062	 	66560.89314	 	1.12789E-4	 	42746.948	37.6778	 
1260.0	1.0	0.0	7.42021	7.54091	-4.39377	20.92257	29.46529	1.69548	0.5898	103.88637	115.75206	38.46452	0.35042	 	71213.22963	 	1.05078E-4	 	42558.858	37.618	 
1255.0	1.0	0.0	7.42284	7.53823	-4.42764	20.90418	29.39666	1.69389	0.59036	104.29735	116.05236	38.62249	0.35022	 	76224.49582	 	9.78494E-5	 	42371.066	37.5584	 
1250.0	1.0	0.0	7.42547	7.53557	-4.46145	20.88581	29.32803	1.6923	0.59091	104.708	116.35149	38.7804	0.35001	 	81624.90142	 	9.10766E-5	 	42183.568	37.4996	 
1245.0	1.0	0.0	7.42809	7.53291	-4.49521	20.86746	29.25939	1.6907	0.59147	105.11833	116.64945	38.93823	0.34981	 	87447.40555	 	8.47334E-5	 	41996.364	37.4408	 
1240.0	1.0	0.0	7.43071	7.53025	-4.52891	20.84913	29.19076	1.6891	0.59203	105.52834	116.94625	39.09599	0.34961	 	93727.98545	 	7.87951E-5	 	41809.449	37.383	 
1235.0	1.0	0.0	7.43333	7.52759	-4.56256	20.83082	29.12213	1.68748	0.5926	105.93802	117.24188	39.25368	0.3494	 	100505.9332	 	7.32385E-5	 	41622.823	37.3252	 
1230.0	1.0	0.0	7.43595	7.52494	-4.59615	20.81252	29.05349	1.68586	0.59317	106.34737	117.53635	39.41129	0.3492	 	107824.1837	 	6.80413E-5	 	41436.483	37.268	 
1225.0	1.0	0.0	7.43856	7.5223	-4.62969	20.79425	28.98486	1.68423	0.59374	106.75639	117.82967	39.56883	0.349	 	115729.6769	 	6.31826E-5	 	41250.43	37.2106	 
1220.0	1.0	0.0	7.44118	7.51966	-4.66317	20.776	28.91622	1.6826	0.59432	107.16508	118.12184	39.72629	0.34879	 	124273.7592	 	5.86423E-5	 	41064.663	37.1534	 
1215.0	1.0	0.0	7.44379	7.51702	-4.6966	20.75776	28.84759	1.68095	0.5949	107.57345	118.41286	39.88368	0.34859	 	133512.6272	 	5.44015E-5	 	40879.182	37.0962	 
1210.0	1.0	0.0	7.44639	7.51439	-4.72997	20.73955	28.77895	1.6793	0.59549	107.98148	118.70274	40.04099	0.34839	 	143507.8191	 	5.04425E-5	 	40693.986	37.0392	 
1205.0	1.0	0.0	7.449	7.51176	-4.76328	20.72136	28.71031	1.67764	0.59608	108.38918	118.99148	40.19823	0.34818	 	154326.7597	 	4.67481E-5	 	40509.075	36.9822	 
1200.0	1.0	0.0	7.4516	7.50914	-4.79655	20.70318	28.64168	1.67597	0.59667	108.79655	119.27909	40.35539	0.34798	 	166043.3642	 	4.33024E-5	 	40324.448	36.9254	 
1195.0	1.0	0.0	7.4542	7.50652	-4.82976	20.68503	28.57304	1.67429	0.59727	109.20359	119.56556	40.51248	0.34778	 	178738.7089	 	4.00902E-5	 	40140.104	36.8688	 
1190.0	1.0	0.0	7.4568	7.5039	-4.86291	20.6669	28.5044	1.67261	0.59787	109.6103	119.85091	40.66949	0.34757	 	192501.7743	 	3.70972E-5	 	39956.044	36.812	 
1185.0	1.0	0.0	7.4594	7.50129	-4.89601	20.64878	28.43576	1.67092	0.59847	110.01667	120.13513	40.82642	0.34737	 	207430.2727	 	3.43097E-5	 	39772.266	36.7556	 
1180.0	1.0	0.0	7.46199	7.49869	-4.92905	20.63069	28.36713	1.66922	0.59908	110.42271	120.41823	40.98328	0.34717	 	223631.5658	 	3.1715E-5	 	39588.771	36.699	 
1175.0	1.0	0.0	7.46458	7.49608	-4.96204	20.61261	28.29849	1.66751	0.5997	110.82841	120.70021	41.14006	0.34696	 	241223.6869	 	2.93009E-5	 	39405.557	36.6428	 
1170.0	1.0	0.0	7.46717	7.49349	-4.99498	20.59456	28.22985	1.66579	0.60032	111.23377	120.98108	41.29676	0.34676	 	260336.4779	 	2.7056E-5	 	39222.625	36.5864	 
1165.0	1.0	0.0	7.46975	7.49089	-5.02786	20.57652	28.16121	1.66407	0.60094	111.6388	121.26084	41.45338	0.34656	 	281112.8554	 	2.49695E-5	 	39039.973	36.5304	 
1160.0	1.0	0.0	7.47233	7.4883	-5.06069	20.55851	28.09257	1.66233	0.60156	112.04349	121.53949	41.60993	0.34636	 	303710.2217	 	2.30313E-5	 	38857.601	36.4744	 
1155.0	1.0	0.0	7.47491	7.48572	-5.09347	20.54051	28.02393	1.66059	0.6022	112.44784	121.81705	41.7664	0.34615	 	328302.0383	 	2.12318E-5	 	38675.509	36.4184	 
1150.0	1.0	0.0	7.47749	7.48314	-5.12619	20.52254	27.95528	1.65884	0.60283	112.85185	122.0935	41.92279	0.34595	 	355079.5809	 	1.95619E-5	 	38493.697	36.3624	 
1145.0	1.0	0.0	7.48007	7.48056	-5.15885	20.50458	27.88664	1.65708	0.60347	113.25552	122.36885	42.07909	0.34575	 	384253.8997	 	1.80132E-5	 	38312.163	36.3068	 
1140.0	1.0	0.0	7.48264	7.47799	-5.19147	20.48665	27.818	1.65531	0.60412	113.65885	122.64312	42.23532	0.34554	 	416058.0091	 	1.65776E-5	 	38130.907	36.2512	 
1135.0	1.0	0.0	7.48521	7.47542	-5.22403	20.46873	27.74936	1.65354	0.60476	114.06184	122.9163	42.39147	0.34534	 	450749.3355	 	1.52476E-5	 	37949.929	36.1956	 
1130.0	1.0	0.0	7.48778	7.47286	-5.25653	20.45083	27.68071	1.65175	0.60542	114.46449	123.18839	42.54754	0.34514	 	488612.4566	 	1.40161E-5	 	37769.228	36.1402	 
1125.0	1.0	0.0	7.49035	7.4703	-5.28899	20.43296	27.61207	1.64996	0.60608	114.8668	123.4594	42.70353	0.34493	 	529962.1674	 	1.28764E-5	 	37588.804	36.0848	 
1120.0	1.0	0.0	7.49291	7.46774	-5.32139	20.4151	27.54343	1.64815	0.60674	115.26876	123.72933	42.85944	0.34473	 	575146.9152	 	1.18224E-5	 	37408.656	36.0296	 
1115.0	1.0	0.0	7.49547	7.46519	-5.35373	20.39726	27.47478	1.64634	0.60741	115.67037	123.99819	43.01527	0.34453	 	624552.651	 	1.08481E-5	 	37228.783	35.9746	 
1110.0	1.0	0.0	7.49803	7.46264	-5.38602	20.37945	27.40614	1.64452	0.60808	116.07164	124.26598	43.17102	0.34432	 	678607.1493	 	9.94804E-6	 	37049.186	35.9194	 
1105.0	1.0	0.0	7.50058	7.4601	-5.41826	20.36165	27.33749	1.64269	0.60876	116.47257	124.5327	43.32669	0.34412	 	737784.8591	 	9.11703E-6	 	36869.864	35.8644	 
1100.0	1.0	0.0	7.50314	7.45756	-5.45045	20.34387	27.26885	1.64085	0.60944	116.87315	124.79835	43.48227	0.34392	 	802612.3528	 	8.35024E-6	 	36690.816	35.8096	 
1095.0	1.0	0.0	7.50569	7.45503	-5.48258	20.32611	27.2002	1.639	0.61013	117.27338	125.06295	43.63777	0.34371	 	873674.4534	 	7.64312E-6	 	36512.041	35.755	 
1090.0	1.0	0.0	7.50824	7.4525	-5.51467	20.30838	27.13155	1.63714	0.61082	117.67327	125.32648	43.79319	0.34351	 	951621.1274	 	6.99143E-6	 	36333.54	35.7002	 
1085.0	1.0	0.0	7.51078	7.44997	-5.54669	20.29066	27.0629	1.63528	0.61152	118.0728	125.58897	43.94853	0.34331	 	1037175.247	 	6.3912E-6	 	36155.312	35.6456	 
1080.0	1.0	0.0	7.51333	7.44745	-5.57867	20.27296	26.99426	1.6334	0.61222	118.47199	125.8504	44.10378	0.3431	 	1131141.337	 	5.83869E-6	 	35977.355	35.5914	 
1075.0	1.0	0.0	7.51587	7.44493	-5.61059	20.25528	26.92561	1.63151	0.61293	118.87083	126.11078	44.25895	0.3429	 	1234415.435	 	5.33045E-6	 	35799.671	35.5368	 
1070.0	1.0	0.0	7.51841	7.44242	-5.64246	20.23762	26.85696	1.62962	0.61364	119.26931	126.37013	44.41404	0.3427	 	1347996.226	 	4.8632E-6	 	35622.257	35.4828	 
1065.0	1.0	0.0	7.52094	7.43991	-5.67428	20.21998	26.78831	1.62771	0.61436	119.66745	126.62843	44.56904	0.3425	 	1472997.609	 	4.43394E-6	 	35445.115	35.4284	 
1060.0	1.0	0.0	7.52348	7.4374	-5.70605	20.20237	26.71966	1.6258	0.61508	120.06523	126.88569	44.72396	0.34229	 	1610662.909	 	4.03981E-6	 	35268.242	35.3746	 
1055.0	1.0	0.0	7.52601	7.4349	-5.73776	20.18477	26.65101	1.62387	0.61581	120.46266	127.14192	44.87879	0.34209	 	1762380.952	 	3.67819E-6	 	35091.64	35.3204	 
1050.0	1.0	0.0	7.52854	7.4324	-5.76942	20.16719	26.58236	1.62193	0.61655	120.85974	127.39712	45.03354	0.34189	 	1929704.254	 	3.34661E-6	 	34915.306	35.2668	 
1045.0	1.0	0.0	7.53106	7.42991	-5.80103	20.14963	26.51371	1.61999	0.61729	121.25646	127.65129	45.1882	0.34168	 	2114369.647	 	3.04278E-6	 	34739.241	35.213	 
1040.0	1.0	0.0	7.53359	7.42742	-5.83258	20.13209	26.44505	1.61803	0.61803	121.65283	127.90443	45.34278	0.34148	 	2318321.65	 	2.76457E-6	 	34563.445	35.1592	 
1035.0	1.0	0.0	7.53611	7.42494	-5.86409	20.11457	26.3764	1.61607	0.61879	122.04884	128.15656	45.49727	0.34128	 	2543739.006	 	2.50999E-6	 	34387.916	35.1058	 
1030.0	1.0	0.0	7.53863	7.42245	-5.89554	20.09707	26.30775	1.61409	0.61954	122.44449	128.40766	45.65168	0.34107	 	2793064.811	 	2.27719E-6	 	34212.654	35.0524	 
1025.0	1.0	0.0	7.54114	7.41998	-5.92694	20.07959	26.23909	1.61211	0.62031	122.83979	128.65776	45.806	0.34087	 	3069040.779	 	2.06447E-6	 	34037.66	34.9988	 
1020.0	1.0	0.0	7.54366	7.41751	-5.95829	20.06213	26.17044	1.61011	0.62108	123.23474	128.90684	45.96024	0.34067	 	3374746.21	 	1.87023E-6	 	33862.931	34.9458	 
1015.0	1.0	0.0	7.54617	7.41504	-5.98959	20.04468	26.10179	1.6081	0.62185	123.62932	129.15491	46.11438	0.34046	 	3713642.38	 	1.69298E-6	 	33688.468	34.8926	 
1010.0	1.0	0.0	7.54868	7.41257	-6.02083	20.02726	26.03313	1.60609	0.62263	124.02354	129.40197	46.26844	0.34026	 	4089623.124	 	1.53137E-6	 	33514.27	34.8396	 
1005.0	1.0	0.0	7.55118	7.41011	-6.05203	20.00986	25.96447	1.60406	0.62342	124.41741	129.64804	46.42242	0.34006	 	4507072.539	 	1.38412E-6	 	33340.337	34.7866	 
1000.0	1.0	0.0	7.55369	7.40766	-6.08317	19.99248	25.89582	1.60202	0.62421	124.81091	129.8931	46.5763	0.33985	 	4970930.871	 	1.25005E-6	 	33166.668	34.7338	 
995.0	1.0	0.0	7.55619	7.4052	-6.11426	19.97512	25.82716	1.59997	0.62501	125.20406	130.13717	46.7301	0.33965	 	5486769.801	 	1.12808E-6	 	32993.263	34.681	 
990.0	1.0	0.0	7.55869	7.40275	-6.1453	19.95778	25.7585	1.59791	0.62582	125.59684	130.38025	46.88381	0.33945	 	6060878.572	 	1.0172E-6	 	32820.121	34.6284	 
985.0	1.0	0.0	7.56118	7.40031	-6.17629	19.94046	25.68985	1.59584	0.62663	125.98926	130.62234	47.03743	0.33924	 	6700362.577	 	9.16475E-7	 	32647.241	34.576	 
980.0	1.0	0.0	7.56368	7.39787	-6.20723	19.92315	25.62119	1.59375	0.62745	126.38132	130.86344	47.19096	0.33904	 	7413256.349	 	8.25051E-7	 	32474.624	34.5234	 
975.0	1.0	0.0	7.56617	7.39543	-6.23811	19.90587	25.55253	1.59166	0.62827	126.77302	131.10356	47.3444	0.33884	 	8208653.157	 	7.42133E-7	 	32302.268	34.4712	 
970.0	1.0	0.0	7.56866	7.393	-6.26895	19.88861	25.48387	1.58956	0.62911	127.16435	131.34269	47.49775	0.33864	 	9096853.795	 	6.6699E-7	 	32130.174	34.4188	 
965.0	1.0	0.0	7.57114	7.39057	-6.29973	19.87137	25.41521	1.58744	0.62995	127.55531	131.58085	47.65101	0.33843	 	1.008953758E7	 	5.98947E-7	 	31958.34	34.3668	 
960.0	1.0	0.0	7.57363	7.38815	-6.33047	19.85414	25.34655	1.58531	0.63079	127.94591	131.81804	47.80419	0.33823	 	1.119995905E7	 	5.37386E-7	 	31786.766	34.3148	 
955.0	1.0	0.0	7.57611	7.38573	-6.36115	19.83694	25.27789	1.58317	0.63164	128.33615	132.05425	47.95727	0.33803	 	1.244317447E7	 	4.81734E-7	 	31615.452	34.2628	 
