T (C)	Fraction solid (wt)-TOTAL	Fraction liquid (wt)-LIQUID	Density (g/(cm)^3)-TOTAL	Molar volume (cm^3)-TOTAL	Volume change (%)-  	Average expansion coeff. (10e-6 1/K)-  	Thermal conductivity (W/(m*K))-TOTAL	Electrical resistivity (10e-6 Ohm*m)-TOTAL	Electrical conductivity (10e6 1/(Ohm*m))-TOTAL	Young's modulus (GPa)-TOTAL	Bulk modulus (GPa)-TOTAL	Shear modulus(GPa)-TOTAL	Poisson's ratio-TOTAL	Liquid viscosity (mPa s)-  	Total viscosity (mPa s)-  	Liquid diffusivity (10e-9 (m^2)/s)-  	Total diffusivity (10e-9 (m^2)/s)-  	Surface Tension (mN/m)-  	Enthalpy (J/mole)-TOTAL	Specific heat (J/(mole K))-TOTAL	Latent heat (J/mole)-TOTAL
1500.0	0.0	1.0	6.99174	7.88515	0.0	25.18284	31.5514	1.83124	0.54608	0.0	104.88556	0.0	0.4997	6.90975	6.90975	1.25248	1.25248	1806.52645	66134.422	 	0.0
1495.0	0.0	1.0	6.99561	7.88078	-0.0553832	25.12892	31.47287	1.83063	0.54626	0.0	105.06992	0.0	0.4997	6.96968	6.96968	1.23821	1.23821	1808.46623	65912.262	44.432	0.0
1490.0	0.0	1.0	6.99948	7.87643	-0.11061	25.07502	31.39433	1.83002	0.54644	0.0	105.25429	0.0	0.4997	7.03049	7.03049	1.22403	1.22403	1810.40319	65690.666	44.3192	0.0
1485.0	0.0	1.0	7.00334	7.87208	-0.16568	25.02114	31.31579	1.82941	0.54663	0.0	105.43866	0.0	0.4997	7.09217	7.09217	1.20994	1.20994	1812.3373	65469.628	44.2076	0.0
1480.0	0.0	1.0	7.0072	7.86775	-0.2206	24.96729	31.23725	1.82879	0.54681	0.0	105.62303	0.0	0.4997	7.15475	7.15475	1.19595	1.19595	1814.26852	65249.144	44.0968	0.0
1476.32	0.0	1.0	7.01003	7.86458	-0.26092	24.92767	31.17946	1.82834	0.54695	0.0	105.7587	0.0	0.4997	7.20137	7.20137	1.18571	1.18571	1815.68775	65087.236	44.0057	0.018
1475.0	0.0988909	0.90111	7.02835	7.84405	-0.5212	24.28535	31.47253	1.80994	0.5525	0.0044082	101.11582	0.00148399	0.48525	7.20724	8.43875	1.18385	1.01108	1814.80642	64053.867	782.411	975.34
1470.0	0.37572	0.62428	7.08088	7.7859	-1.25867	22.4786	32.32115	1.75738	0.56903	0.95572	88.15366	0.33085	0.44434	7.2306	64.01946	1.17665	0.1329	1811.86235	61117.498	587.274	3692.322
1465.0	0.53919	0.46081	7.11347	7.75035	-1.70957	21.3966	32.83544	1.72489	0.57975	4.16316	80.60923	1.4661	0.41981	7.25489	246.20445	1.16935	0.034457	1809.31572	59312.383	361.023	5278.594
1460.0	0.64471	0.35529	7.13576	7.72627	-2.01491	20.68285	33.16557	1.70281	0.58726	8.68671	75.86958	3.09406	0.40377	7.27989	511.80041	1.16198	0.0165281	1807.08258	58085.175	245.442	6287.496
1455.0	0.71738	0.28262	7.15215	7.70874	-2.23717	20.17934	33.38443	1.68677	0.59285	13.54582	72.73351	4.86347	0.39261	7.30567	812.29502	1.15454	0.0103838	1805.09916	57184.253	180.184	6970.648
1450.0	0.76971	0.23029	7.16487	7.69522	-2.40871	19.80418	33.53069	1.67455	0.59718	18.22055	70.59507	6.58031	0.38448	7.33183	1120.6902	1.14709	0.00750454	1803.3226	56484.378	139.975	7453.297
1445.0	0.80887	0.19113	7.1752	7.68438	-2.54621	19.51518	33.62869	1.66483	0.60066	22.5207	69.10676	8.1696	0.37832	7.35881	1426.33287	1.13957	0.00587932	1801.71089	55913.992	114.077	7807.02
1440.0	0.83904	0.16096	7.18387	7.67533	-2.66094	19.28374	33.69268	1.65683	0.60356	26.39825	68.06349	9.60969	0.37352	7.38655	1725.65001	1.13198	0.0048454	1800.23939	55431.548	96.4888	8073.359
1435.0	0.86285	0.13715	7.19138	7.66754	-2.75972	19.09259	33.73214	1.65006	0.60604	29.87145	67.33629	10.90451	0.36968	7.41465	2018.66776	1.1244	0.00412998	1798.88743	55011.087	84.0922	8278.267
1430.0	0.882	0.118	7.19802	7.66071	-2.84636	18.93206	33.75344	1.64419	0.6082	32.97977	66.84151	12.06681	0.36655	7.44365	2306.78393	1.11674	0.00360357	1797.63344	54635.696	75.0782	8438.655
1429.14	0.88502	0.11498	7.19914	7.65957	-2.86084	18.90552	33.75596	1.64324	0.60856	33.49658	66.77105	12.26037	0.36605	7.4486	2357.08697	1.11544	0.00352488	1797.42308	54573.88	 	8463.39
1425.0	0.90086	0.0991388	7.20478	7.6538	-2.93404	18.76766	33.7475	1.63965	0.60988	36.45211	66.71073	13.36539	0.36368	7.47767	2668.77996	1.1084	0.00310563	1796.15092	54237.789	79.5814	8622.105
1424.91	0.90118	0.0988202	7.2049	7.65368	-2.93545	18.76516	33.74726	1.63958	0.60991	36.51392	66.71055	13.38851	0.36363	7.47838	2675.64611	1.10823	0.00309749	1796.12119	54230.677	 	8625.226
1420.0	0.91362	0.0863761	7.20975	7.64861	-2.99977	18.66035	33.71629	1.63634	0.61112	39.11036	66.86731	14.36047	0.36174	7.51331	3000.73055	1.09989	0.00275394	1794.71932	53888.628	69.8322	8757.35
1415.0	0.92405	0.0759503	7.21429	7.64389	-3.0596	18.56802	33.68018	1.63326	0.61227	41.46297	67.08353	15.2425	0.36011	7.5494	3329.9761	1.0914	0.00247432	1793.38421	53566.912	64.3432	8865.688
1410.0	0.93272	0.0672763	7.21852	7.6395	-3.11531	18.48603	33.64047	1.63034	0.61337	43.57088	67.34322	16.0338	0.35872	7.58583	3660.16429	1.08295	0.00224444	1792.13402	53266.002	60.182	8953.756
1405.0	0.94003	0.0599684	7.22251	7.63537	-3.16772	18.4123	33.59792	1.62756	0.61442	45.4757	67.63735	16.74964	0.35751	7.6226	3994.03969	1.07452	0.00205071	1790.95611	52981.329	56.9346	9026.113
1403.82	0.9416	0.0584043	7.22343	7.63442	-3.1798	18.39558	33.58758	1.62692	0.61466	45.90094	67.71058	16.90954	0.35725	7.6313	4073.70702	1.07254	0.0020092	1790.68394	52916.207	 	9041.325
1400.0	0.94903	0.0509713	7.22771	7.63	-3.23577	18.29592	33.55972	1.62455	0.61555	47.86301	67.90562	17.64779	0.35606	7.68023	4397.43865	1.06328	0.00185704	1791.03488	52671.973	61.8712	9123.678
1395.0	0.95702	0.04298	7.23275	7.62481	-3.30159	18.18469	33.5196	1.62164	0.61666	50.12421	68.201	18.49951	0.35474	7.74506	4815.98375	1.05123	0.00169058	1791.51484	52374.695	59.4556	9209.687
1393.87	0.97709	0.0229104	7.24361	7.61532	-3.42197	17.87397	33.59876	1.61672	0.61854	54.95117	67.48314	20.32973	0.3515	7.75989	5296.02096	1.04851	0.0015363	1791.62659	52222.549	 	9313.959
1390.0	0.98317	0.0168298	7.24812	7.61099	-3.4769	17.77548	33.57553	1.61408	0.61955	56.84115	67.64905	21.04572	0.35042	7.80912	5658.15519	1.03948	0.00143464	1791.96632	52016.679	71.6032	9356.952
1385.0	0.98967	0.0103338	7.25348	7.60586	-3.54197	17.66359	33.54109	1.61088	0.62078	59.00821	67.91019	21.86743	0.34923	7.87422	6125.74306	1.02779	0.00132115	1792.44598	51764.771	50.3816	9398.623
1380.0	0.9949	0.00510109	7.25841	7.60117	-3.60141	17.56625	33.50255	1.60787	0.62194	60.90366	68.21362	22.58676	0.34822	7.94094	6595.07923	1.01608	0.00122343	1792.96184	51525.851	47.784	9427.817
1375.92	0.99841	0.00159371	7.26214	7.59762	-3.64646	17.49571	33.46861	1.60554	0.62285	62.27863	68.48639	23.10888	0.3475	7.99646	6981.40784	1.00653	0.00115288	1793.4064	51338.618	 	9444.421
1375.0	0.99867	0.00132697	7.2627	7.59706	-3.65356	17.4882	33.45845	1.60512	0.623	62.44892	68.56858	23.17337	0.34743	8.00907	7056.97105	1.00439	0.0011399	1793.508	51298.732	45.4238	9445.718
1370.0	1.0	0.0	7.26568	7.59407	-3.69147	17.44877	33.40314	1.6029	0.62387	63.34454	69.01789	23.51261	0.34703	 	7477.70496	 	0.0010725	 	51084.261	42.8942	9451.471
1365.0	1.0	0.0	7.26794	7.5917	-3.7215	17.43088	33.344	1.60086	0.62466	63.8619	69.49171	23.70813	0.34684	 	7874.26208	 	0.00101538	 	50829.549	50.9424	 
1360.0	1.0	0.0	7.27021	7.58934	-3.75147	17.41298	33.28486	1.59881	0.62546	64.38284	69.9682	23.90503	0.34664	 	8294.55892	 	9.60991E-4	 	50629.434	40.023	 
1355.0	1.0	0.0	7.27247	7.58698	-3.78139	17.39508	33.22572	1.59675	0.62627	64.90731	70.44729	24.10331	0.34644	 	8740.17231	 	9.09204E-4	 	50429.572	39.9724	 
1350.0	1.0	0.0	7.27473	7.58462	-3.81127	17.37719	33.16658	1.59469	0.62708	65.43527	70.92893	24.30294	0.34624	 	9212.79383	 	8.59912E-4	 	50229.957	39.923	 
1345.0	1.0	0.0	7.27698	7.58227	-3.8411	17.35929	33.10744	1.59262	0.6279	65.96668	71.41307	24.5039	0.34604	 	9714.23895	 	8.13012E-4	 	50030.589	39.8736	 
1340.0	1.0	0.0	7.27924	7.57992	-3.87088	17.34139	33.0483	1.59054	0.62872	66.5015	71.89965	24.7062	0.34585	 	10246.4568	 	7.68401E-4	 	49831.466	39.8246	 
1335.0	1.0	0.0	7.28149	7.57758	-3.90062	17.32349	32.98916	1.58845	0.62955	67.03969	72.38862	24.9098	0.34565	 	10811.54092	 	7.25982E-4	 	49632.588	39.7756	 
1330.0	1.0	0.0	7.28374	7.57524	-3.9303	17.30558	32.93002	1.58635	0.63038	67.5812	72.87993	25.11471	0.34545	 	11411.74084	 	6.8566E-4	 	49433.951	39.7274	 
1325.0	1.0	0.0	7.28599	7.5729	-3.95994	17.28768	32.87088	1.58425	0.63121	68.12601	73.37352	25.32089	0.34525	 	12049.47468	 	6.47345E-4	 	49235.556	39.679	 
1320.0	1.0	0.0	7.28823	7.57057	-3.98953	17.26978	32.81174	1.58214	0.63205	68.67406	73.86935	25.52834	0.34506	 	12727.3429	 	6.1095E-4	 	49037.401	39.631	 
1315.0	1.0	0.0	7.29048	7.56824	-4.01907	17.25187	32.75259	1.58002	0.6329	69.22531	74.36735	25.73705	0.34486	 	13448.14318	 	5.76389E-4	 	48839.484	39.5834	 
1310.0	1.0	0.0	7.29272	7.56591	-4.04857	17.23396	32.69345	1.5779	0.63375	69.77973	74.86748	25.94699	0.34466	 	14214.88667	 	5.43582E-4	 	48641.804	39.536	 
1305.0	1.0	0.0	7.29496	7.56359	-4.07801	17.21606	32.63431	1.57577	0.63461	70.33728	75.36969	26.15816	0.34446	 	15030.81563	 	5.12451E-4	 	48444.359	39.489	 
1300.0	1.0	0.0	7.29719	7.56127	-4.10741	17.19815	32.57517	1.57362	0.63548	70.89791	75.87393	26.37053	0.34426	 	15899.4227	 	4.8292E-4	 	48247.148	39.4422	 
1295.0	1.0	0.0	7.29943	7.55896	-4.13676	17.18024	32.51603	1.57148	0.63634	71.46158	76.38014	26.58411	0.34407	 	16824.47187	 	4.54918E-4	 	48050.169	39.3958	 
1290.0	1.0	0.0	7.30166	7.55665	-4.16606	17.16232	32.45689	1.56932	0.63722	72.02826	76.88827	26.79886	0.34387	 	17810.02128	 	4.28374E-4	 	47853.421	39.3496	 
1285.0	1.0	0.0	7.30389	7.55434	-4.19532	17.14441	32.39775	1.56716	0.6381	72.5979	77.39828	27.01478	0.34367	 	18860.44823	 	4.03222E-4	 	47656.903	39.3036	 
1280.0	1.0	0.0	7.30612	7.55204	-4.22453	17.1265	32.3386	1.56498	0.63898	73.17047	77.91011	27.23185	0.34347	 	19980.4763	 	3.79397E-4	 	47460.612	39.2582	 
1275.0	1.0	0.0	7.30834	7.54974	-4.25368	17.10858	32.27946	1.5628	0.63988	73.74592	78.42371	27.45005	0.34327	 	21175.20512	 	3.56839E-4	 	47264.547	39.213	 
1270.0	1.0	0.0	7.31056	7.54744	-4.28279	17.09067	32.22032	1.56062	0.64077	74.32421	78.93904	27.66938	0.34308	 	22450.14276	 	3.35487E-4	 	47068.706	39.1682	 
1265.0	1.0	0.0	7.31278	7.54515	-4.31186	17.07275	32.16117	1.55842	0.64168	74.90531	79.45605	27.88982	0.34288	 	23811.2412	 	3.15285E-4	 	46873.088	39.1236	 
1260.0	1.0	0.0	7.315	7.54286	-4.34087	17.05483	32.10203	1.55622	0.64258	75.48917	79.97469	28.11136	0.34268	 	25264.93511	 	2.96178E-4	 	46677.691	39.0794	 
1255.0	1.0	0.0	7.31722	7.54058	-4.36984	17.03691	32.04289	1.554	0.6435	76.07576	80.4949	28.33397	0.34248	 	26818.18422	 	2.78114E-4	 	46482.513	39.0356	 
1250.0	1.0	0.0	7.31943	7.5383	-4.39876	17.01899	31.98374	1.55178	0.64442	76.66502	81.01664	28.55765	0.34229	 	28478.51975	 	2.61043E-4	 	46287.552	38.9922	 
1245.0	1.0	0.0	7.32164	7.53602	-4.42763	17.00107	31.9246	1.54955	0.64535	77.25694	81.53987	28.78237	0.34209	 	30254.09523	 	2.44916E-4	 	46092.807	38.949	 
1240.0	1.0	0.0	7.32385	7.53375	-4.45645	16.98315	31.86546	1.54732	0.64628	77.85145	82.06454	29.00814	0.34189	 	32153.7422	 	2.29687E-4	 	45898.276	38.9062	 
1235.0	1.0	0.0	7.32606	7.53148	-4.48523	16.96522	31.80631	1.54507	0.64722	78.44853	82.59059	29.23493	0.34169	 	34187.03125	 	2.15313E-4	 	45703.957	38.8638	 
1230.0	1.0	0.0	7.32826	7.52922	-4.51395	16.9473	31.74717	1.54282	0.64816	79.04814	83.11798	29.46272	0.34149	 	36364.33897	 	2.0175E-4	 	45509.847	38.822	 
1225.0	1.0	0.0	7.33046	7.52696	-4.54263	16.92937	31.68802	1.54056	0.64912	79.65023	83.64667	29.69151	0.3413	 	38696.92144	 	1.88958E-4	 	45315.945	38.7804	 
1220.0	1.0	0.0	7.33266	7.5247	-4.57126	16.91145	31.62888	1.53829	0.65007	80.25476	84.17661	29.92128	0.3411	 	41196.99492	 	1.76899E-4	 	45122.249	38.7392	 
1215.0	1.0	0.0	7.33486	7.52244	-4.59984	16.89352	31.56973	1.53601	0.65104	80.8617	84.70775	30.15201	0.3409	 	43877.82449	 	1.65534E-4	 	44928.756	38.6986	 
1210.0	1.0	0.0	7.33705	7.52019	-4.62838	16.87559	31.51059	1.53372	0.65201	81.47101	85.24004	30.38369	0.3407	 	46753.82148	 	1.5483E-4	 	44735.464	38.6584	 
1205.0	1.0	0.0	7.33925	7.51795	-4.65686	16.85766	31.45144	1.53142	0.65299	82.08264	85.77345	30.61631	0.3405	 	49840.65067	 	1.44751E-4	 	44542.371	38.6186	 
1200.0	1.0	0.0	7.34144	7.51571	-4.6853	16.83973	31.3923	1.52912	0.65397	82.69656	86.30792	30.84986	0.34031	 	53155.34818	 	1.35265E-4	 	44349.475	38.5792	 
1195.0	1.0	0.0	7.34362	7.51347	-4.71369	16.82179	31.33315	1.52681	0.65496	83.31273	86.84342	31.0843	0.34011	 	56716.45141	 	1.26342E-4	 	44156.773	38.5404	 
1190.0	1.0	0.0	7.34581	7.51123	-4.74204	16.80386	31.27401	1.52448	0.65596	83.93111	87.37989	31.31965	0.33991	 	60544.14205	 	1.17951E-4	 	43964.263	38.502	 
1185.0	1.0	0.0	7.34799	7.509	-4.77033	16.78592	31.21486	1.52215	0.65696	84.55165	87.91729	31.55587	0.33971	 	64660.40386	 	1.10065E-4	 	43771.942	38.4642	 
1180.0	1.0	0.0	7.35017	7.50677	-4.79858	16.76799	31.15571	1.51981	0.65798	85.17433	88.45558	31.79295	0.33952	 	69089.19665	 	1.02657E-4	 	43579.809	38.4266	 
1175.0	1.0	0.0	7.35235	7.50455	-4.82677	16.75005	31.09657	1.51747	0.65899	85.7991	88.99471	32.03089	0.33932	 	73856.64832	 	9.56997E-5	 	43387.859	38.39	 
1170.0	1.0	0.0	7.35452	7.50233	-4.85492	16.73211	31.03742	1.51511	0.66002	86.42591	89.53464	32.26966	0.33912	 	78991.26695	 	8.91701E-5	 	43196.092	38.3534	 
1165.0	1.0	0.0	7.3567	7.50012	-4.88303	16.71417	30.97827	1.51274	0.66105	87.05474	90.07533	32.50926	0.33892	 	84524.17513	 	8.30443E-5	 	43004.504	38.3176	 
1160.0	1.0	0.0	7.35887	7.4979	-4.91108	16.69623	30.91913	1.51037	0.66209	87.68555	90.61673	32.74966	0.33872	 	90489.36915	 	7.73002E-5	 	42813.092	38.2824	 
1155.0	1.0	0.0	7.36103	7.49569	-4.93909	16.67829	30.85998	1.50798	0.66314	88.31829	91.1588	32.99086	0.33853	 	96924.00573	 	7.19166E-5	 	42621.853	38.2478	 
1150.0	1.0	0.0	7.3632	7.49349	-4.96704	16.66034	30.80083	1.50559	0.66419	88.95292	91.7015	33.23283	0.33833	 	103868.7194	 	6.68733E-5	 	42430.785	38.2136	 
1145.0	1.0	0.0	7.36536	7.49129	-4.99495	16.6424	30.74168	1.50318	0.66525	89.58941	92.24478	33.47558	0.33813	 	111367.9743	 	6.21511E-5	 	42239.886	38.1798	 
1140.0	1.0	0.0	7.36752	7.48909	-5.02282	16.62445	30.68254	1.50077	0.66632	90.22772	92.78861	33.71907	0.33793	 	119470.4539	 	5.77317E-5	 	42049.151	38.147	 
1135.0	1.0	0.0	7.36968	7.4869	-5.05063	16.60651	30.62339	1.49835	0.6674	90.86781	93.33294	33.9633	0.33774	 	128229.4936	 	5.35979E-5	 	41858.577	38.1148	 
1130.0	1.0	0.0	7.37184	7.48471	-5.0784	16.58856	30.56424	1.49592	0.66849	91.50963	93.87772	34.20825	0.33754	 	137703.5605	 	4.97331E-5	 	41668.163	38.0828	 
1125.0	1.0	0.0	7.37399	7.48252	-5.10611	16.57061	30.50509	1.49348	0.66958	92.15316	94.42293	34.45391	0.33734	 	147956.7869	 	4.61217E-5	 	41477.904	38.0518	 
1120.0	1.0	0.0	7.37614	7.48034	-5.13378	16.55266	30.44594	1.49103	0.67068	92.79835	94.96851	34.70026	0.33714	 	159059.5625	 	4.27489E-5	 	41287.797	38.0214	 
1115.0	1.0	0.0	7.37829	7.47816	-5.1614	16.53471	30.38679	1.48857	0.67179	93.44516	95.51443	34.9473	0.33694	 	171089.1941	 	3.96005E-5	 	41097.838	37.9918	 
1110.0	1.0	0.0	7.38044	7.47599	-5.18898	16.51676	30.32765	1.4861	0.6729	94.09356	96.06064	35.195	0.33675	 	184130.6385	 	3.66632E-5	 	40908.026	37.9624	 
1105.0	1.0	0.0	7.38258	7.47382	-5.2165	16.4988	30.2685	1.48362	0.67403	94.7435	96.60711	35.44335	0.33655	 	198277.3202	 	3.39242E-5	 	40718.355	37.9342	 
1100.0	1.0	0.0	7.38472	7.47165	-5.24398	16.48085	30.20935	1.48113	0.67516	95.39495	97.15379	35.69234	0.33635	 	213632.0416	 	3.13717E-5	 	40528.822	37.9066	 
1095.0	1.0	0.0	7.38686	7.46949	-5.27141	16.46289	30.1502	1.47864	0.6763	96.04788	97.70064	35.94195	0.33615	 	230307.9987	 	2.89942E-5	 	40339.423	37.8798	 
1090.0	1.0	0.0	7.38899	7.46733	-5.29879	16.44493	30.09106	1.47613	0.67745	96.70223	98.24763	36.19217	0.33595	 	248429.9152	 	2.6781E-5	 	40150.156	37.8534	 
1085.0	1.0	0.0	7.39113	7.46518	-5.32612	16.42698	30.03191	1.47361	0.67861	97.35797	98.79472	36.44299	0.33576	 	268135.308	 	2.47218E-5	 	39961.015	37.8282	 
1080.0	1.0	0.0	7.39326	7.46303	-5.3534	16.40902	29.97276	1.47108	0.67977	98.01507	99.34186	36.69439	0.33556	 	289575.9032	 	2.28071E-5	 	39771.997	37.8036	 
1075.0	1.0	0.0	7.39539	7.46088	-5.38064	16.39106	29.91362	1.46854	0.68095	98.67348	99.88902	36.94636	0.33536	 	312919.2188	 	2.10277E-5	 	39583.098	37.7798	 
1070.0	1.0	0.0	7.39751	7.45873	-5.40783	16.37309	29.85447	1.466	0.68213	99.33317	100.43616	37.19887	0.33516	 	338350.337	 	1.93751E-5	 	39394.313	37.757	 
1065.0	1.0	0.0	7.39963	7.45659	-5.43497	16.35513	29.79533	1.46344	0.68332	99.9941	100.98324	37.45193	0.33497	 	366073.8897	 	1.78411E-5	 	39205.638	37.735	 
1060.0	1.0	0.0	7.40175	7.45446	-5.46206	16.33717	29.73619	1.46087	0.68452	100.65623	101.53021	37.70551	0.33477	 	396316.2842	 	1.64181E-5	 	39017.069	37.7138	 
1055.0	1.0	0.0	7.40387	7.45233	-5.4891	16.3192	29.67704	1.45829	0.68573	101.31952	102.07705	37.95961	0.33457	 	429328.201	 	1.50989E-5	 	38828.601	37.6936	 
1050.0	1.0	0.0	7.40599	7.4502	-5.5161	16.30124	29.6179	1.4557	0.68695	101.98393	102.62372	38.21419	0.33437	 	465387.3973	 	1.38765E-5	 	38640.229	37.6744	 
1045.0	1.0	0.0	7.4081	7.44807	-5.54304	16.28327	29.55877	1.4531	0.68818	102.64943	103.17017	38.46927	0.33417	 	504801.8593	 	1.27447E-5	 	38451.949	37.656	 
1040.0	1.0	0.0	7.41021	7.44595	-5.56994	16.2653	29.49963	1.45049	0.68942	103.31598	103.71637	38.7248	0.33398	 	547913.3456	 	1.16974E-5	 	38263.755	37.6388	 
1035.0	1.0	0.0	7.41232	7.44383	-5.59679	16.24733	29.4405	1.44787	0.69067	103.98353	104.26229	38.9808	0.33378	 	595101.3769	 	1.07289E-5	 	38075.643	37.6224	 
1030.0	1.0	0.0	7.41442	7.44172	-5.6236	16.22936	29.38137	1.44524	0.69193	104.65206	104.80788	39.23723	0.33358	 	646787.7298	 	9.83375E-6	 	37887.607	37.6072	 
1025.0	1.0	0.0	7.41653	7.43961	-5.65035	16.21139	29.32224	1.4426	0.69319	105.32152	105.3531	39.49409	0.33338	 	703441.5034	 	9.00707E-6	 	37699.642	37.593	 
1020.0	1.0	0.0	7.41863	7.4375	-5.67706	16.19342	29.26312	1.43995	0.69447	105.99188	105.89793	39.75136	0.33319	 	765584.8359	 	8.24408E-6	 	37511.742	37.58	 
1015.0	1.0	0.0	7.42072	7.4354	-5.70371	16.17544	29.204	1.43728	0.69576	106.6631	106.44233	40.00903	0.33299	 	833799.3615	 	7.54035E-6	 	37323.902	37.568	 
1010.0	1.0	0.0	7.42282	7.4333	-5.73032	16.15747	29.14488	1.43461	0.69706	107.33513	106.98625	40.26709	0.33279	 	908733.5074	 	6.89172E-6	 	37136.115	37.5574	 
1005.0	1.0	0.0	7.42491	7.43121	-5.75689	16.13949	29.08577	1.43192	0.69836	108.00795	107.52967	40.52551	0.33259	 	991110.7497	 	6.29428E-6	 	36948.375	37.548	 
1000.0	1.0	0.0	7.427	7.42912	-5.7834	16.12151	29.02667	1.42922	0.69968	108.68151	108.07254	40.78429	0.33239	 	1081738.961	 	5.74439E-6	 	36760.677	37.5396	 
995.0	1.0	0.0	7.42909	7.42703	-5.80986	16.10353	28.96757	1.42651	0.70101	109.35577	108.61484	41.04341	0.3322	 	1181521.004	 	5.23861E-6	 	36573.013	37.5328	 
990.0	1.0	0.0	7.43117	7.42495	-5.83628	16.08555	28.90848	1.42379	0.70235	110.0307	109.15652	41.30286	0.332	 	1291466.746	 	4.77374E-6	 	36385.377	37.5272	 
985.0	1.0	0.0	7.43325	7.42287	-5.86265	16.06757	28.84941	1.42106	0.7037	110.70627	109.69755	41.56262	0.3318	 	1412706.705	 	4.34677E-6	 	36197.762	37.523	 
980.0	1.0	0.0	7.43533	7.4208	-5.88897	16.04959	28.79033	1.41832	0.70506	111.38242	110.2379	41.82269	0.3316	 	1546507.546	 	3.95492E-6	 	36010.16	37.5204	 
975.0	1.0	0.0	7.43741	7.41872	-5.91524	16.03161	28.73128	1.41556	0.70643	112.05914	110.77753	42.08303	0.33141	 	1694289.72	 	3.59555E-6	 	35822.566	37.5188	 
970.0	1.0	0.0	7.43948	7.41666	-5.94146	16.01362	28.67223	1.4128	0.70782	112.73636	111.3164	42.34365	0.33121	 	1857647.538	 	3.26623E-6	 	35634.969	37.5194	 
965.0	1.0	0.0	7.44155	7.41459	-5.96764	15.99564	28.61319	1.41002	0.70921	113.41407	111.85449	42.60453	0.33101	 	2038372.045	 	2.96467E-6	 	35447.364	37.521	 
960.0	1.0	0.0	7.44362	7.41253	-5.99377	15.97765	28.55417	1.40723	0.71062	114.09222	112.39175	42.86565	0.33081	 	2238477.121	 	2.68875E-6	 	35259.741	37.5246	 
955.0	1.0	0.0	7.44569	7.41048	-6.01985	15.95966	28.49517	1.40442	0.71204	114.77078	112.92816	43.127	0.33061	 	2460229.276	 	2.43648E-6	 	35072.092	37.5298	 
950.0	1.0	0.0	7.44775	7.40842	-6.04588	15.94167	28.43618	1.40161	0.71347	115.4497	113.46368	43.38857	0.33042	 	2706181.705	 	2.20602E-6	 	34884.409	37.5366	 
