T (C)	Fraction solid (wt)-TOTAL	Fraction liquid (wt)-LIQUID	Density (g/(cm)^3)-TOTAL	Molar volume (cm^3)-TOTAL	Volume change (%)-  	Average expansion coeff. (10e-6 1/K)-  	Thermal conductivity (W/(m*K))-TOTAL	Electrical resistivity (10e-6 Ohm*m)-TOTAL	Electrical conductivity (10e6 1/(Ohm*m))-TOTAL	Young's modulus (GPa)-TOTAL	Bulk modulus (GPa)-TOTAL	Shear modulus(GPa)-TOTAL	Poisson's ratio-TOTAL	Liquid viscosity (mPa s)-  	Total viscosity (mPa s)-  	Liquid diffusivity (10e-9 (m^2)/s)-  	Total diffusivity (10e-9 (m^2)/s)-  	Surface Tension (mN/m)-  	Enthalpy (J/mole)-TOTAL	Specific heat (J/(mole K))-TOTAL	Latent heat (J/mole)-TOTAL
1500.0	0.03079	0.96921	7.06743	7.8582	0.0	21.86407	32.16938	1.79606	0.55677	4.19879E-5	103.93769	1.40423E-5	0.49505	7.4167	7.72788	1.16687	1.11988	1759.77606	67850.809	 	0.0
1495.0	0.39907	0.60093	7.12644	7.79317	-0.82753	19.88041	33.27183	1.73165	0.57748	1.29866	88.02987	0.4506	0.44103	7.45477	85.18078	1.15763	0.10131	1748.42072	64126.105	744.941	3501.478
1490.0	0.57486	0.42514	7.15614	7.76085	-1.23886	18.92179	33.79896	1.69982	0.5883	5.73297	80.54176	2.02604	0.41482	7.49256	347.88149	1.14854	0.0247369	1739.92101	62252.695	374.682	5152.258
1485.0	0.67667	0.32333	7.17436	7.74115	-1.48945	18.35913	34.09081	1.68049	0.59506	11.19897	76.34066	4.00119	0.39945	7.53091	692.81893	1.13945	0.0123858	1733.2672	61088.842	232.771	6094.073
1480.0	0.74249	0.25751	7.18702	7.72756	-1.66246	17.9875	34.26281	1.6673	0.59977	16.46064	73.75467	5.92362	0.38941	7.5692	1052.8416	1.13046	0.00812723	1727.89388	60268.339	164.101	6693.125
1475.0	0.78822	0.21178	7.19654	7.71739	-1.79192	17.72314	34.36611	1.65755	0.6033	21.15694	72.07692	7.65254	0.38235	7.60772	1404.86787	1.12153	0.00607337	1723.45034	59638.561	125.956	7102.034
1470.0	0.82165	0.17835	7.20415	7.70926	-1.89528	17.52296	34.42661	1.6499	0.6061	25.25286	70.95806	9.16874	0.37712	7.64609	1743.64254	1.11271	0.00487937	1719.70536	59124.972	102.718	7395.335
1465.0	0.84704	0.15296	7.21049	7.70254	-1.98083	17.36663	34.45894	1.64363	0.60841	28.81126	70.20746	10.49138	0.37309	7.685	2070.17483	1.1039	0.00409795	1716.49635	58687.033	87.5878	7613.561
1460.0	0.86691	0.13309	7.21597	7.69676	-2.0544	17.2397	34.47174	1.63829	0.61039	31.91576	69.71132	11.64898	0.36989	7.72437	2387.31911	1.09512	0.00354334	1713.70782	58300.901	77.2264	7780.552
1455.0	0.88283	0.11717	7.22083	7.69164	-2.11959	17.13331	34.47048	1.63362	0.61214	34.64401	69.39858	12.66886	0.36729	7.7636	2698.23596	1.08644	0.00312599	1711.25478	57951.692	69.8418	7911.186
1450.0	0.89584	0.10416	7.22523	7.68701	-2.17843	17.04247	34.45884	1.62945	0.61371	37.06288	69.22221	13.57492	0.36512	7.8033	3006.07261	1.07778	0.00279776	1709.07138	57629.666	64.4052	8015.202
1445.0	0.90663	0.093369	7.22928	7.68276	-2.23249	16.96332	34.43929	1.62564	0.61514	39.22625	69.15021	14.38662	0.36329	7.84316	3313.54179	1.06919	0.00253079	1707.10738	57328.187	60.2958	8099.235
1440.0	0.91572	0.0842783	7.23307	7.67879	-2.283	16.89274	34.41362	1.62212	0.61648	41.18027	69.1593	15.12079	0.36171	7.88315	3623.28304	1.06068	0.0023077	1705.32375	57042.592	57.119	8167.942
1435.0	0.92347	0.0765331	7.23665	7.67507	-2.33035	16.82987	34.38315	1.61882	0.61773	42.95753	69.23396	15.78931	0.36034	7.92361	3937.29551	1.05218	0.00211746	1703.68673	56769.51	54.6164	8224.691
1430.0	0.93013	0.069866	7.24005	7.67153	-2.37542	16.7725	34.34878	1.61569	0.61893	44.58832	69.36132	16.40333	0.35912	7.96454	4257.67733	1.04371	0.00195239	1702.17169	56506.447	52.6126	8271.972
1425.0	0.93592	0.0640759	7.24331	7.66814	-2.41861	16.71962	34.31125	1.61271	0.62007	46.09556	69.53232	16.9713	0.35804	8.00562	4586.23311	1.0353	0.0018072	1700.7571	56251.524	50.9846	8311.662
1420.0	0.94099	0.0590052	7.24647	7.66487	-2.46025	16.67042	34.27113	1.60985	0.62118	47.4984	69.73976	17.50031	0.35707	8.04683	4924.69221	1.02697	0.00167804	1699.42522	56003.297	49.6454	8345.198
1415.0	0.94547	0.0545331	7.24952	7.66171	-2.50044	16.62469	34.22887	1.60708	0.62225	48.81198	69.97824	17.99595	0.35619	8.08888	5274.6794	1.01861	0.00156207	1698.15953	55760.644	48.5306	8373.703
1412.06	0.94785	0.052149	7.25128	7.65989	-2.52361	16.59886	34.20312	1.60548	0.62287	49.54703	70.1312	18.27343	0.35571	8.11346	5486.22154	1.01376	0.00149923	1697.43784	55620.249	47.7578	8388.44
1410.0	0.95048	0.0495206	7.25297	7.65814	-2.54582	16.56491	34.18877	1.60419	0.62337	50.29154	70.20107	18.55466	0.35523	8.13568	5666.00249	1.00975	0.00144988	1696.67999	55511.342	52.8605	8409.392
1405.0	0.95605	0.0439503	7.25681	7.65416	-2.59644	16.49083	34.15089	1.6012	0.62453	51.95273	70.4086	19.18251	0.35417	8.18907	6104.84584	1.00019	0.00134166	1694.96334	55255.547	51.159	8452.108
1403.34	0.95767	0.042329	7.25802	7.65292	-2.61227	16.46875	34.13742	1.60025	0.6249	52.46196	70.48851	19.37505	0.35385	8.20719	6251.51477	0.99699	0.00130889	1694.411	55172.802	 	8464.111
1403.34	0.95767	0.042329	7.25801	7.65292	-2.61228	16.46872	34.13741	1.60025	0.6249	52.46205	70.48857	19.37508	0.35385	8.20719	6251.51717	0.99699	0.00130889	1694.41097	55172.72	 	8464.192
1400.0	0.96065	0.0393462	7.26036	7.6505	-2.64305	16.42687	34.10937	1.59838	0.62564	53.43431	70.66167	19.74281	0.35326	8.24326	6548.88244	0.99066	0.00124697	1693.34655	55009.609	49.1876	8485.497
1395.0	0.96454	0.0354581	7.2637	7.64706	-2.68679	16.3701	34.0652	1.59567	0.6267	54.78107	70.9493	20.25237	0.35246	8.2971	7003.36421	0.98129	0.00116256	1691.83696	54771.227	47.6764	8511.857
1390.0	0.96786	0.0321409	7.26686	7.64381	-2.72816	16.31927	34.01889	1.59305	0.62773	56.01826	71.2652	20.72066	0.35175	8.35169	7471.14631	0.97195	0.0010865	1690.39971	54538.705	46.5044	8532.881
1385.0	0.97072	0.0292814	7.2699	7.6407	-2.7678	16.27273	33.97087	1.5905	0.62873	57.16749	71.60416	21.15581	0.35111	8.40627	7955.28692	0.96274	0.00101731	1689.02161	54310.823	45.5764	8549.784
1380.0	0.97321	0.0267896	7.27282	7.63771	-2.80589	16.22999	33.92148	1.58802	0.62972	58.24475	71.96249	21.56381	0.35052	8.4616	8458.40217	0.95356	9.53917E-4	1687.68731	54086.673	44.83	8563.472
1375.0	0.9754	0.0246019	7.27566	7.63481	-2.84279	16.19019	33.87098	1.58557	0.63069	59.26308	72.33719	21.94958	0.34998	8.51724	8983.09703	0.94446	8.95483E-4	1686.38662	53865.568	44.221	8574.628
1370.0	0.97734	0.0226633	7.27843	7.63198	-2.87872	16.15272	33.81953	1.58317	0.63164	60.23265	72.72592	22.31696	0.34948	8.57324	9531.84009	0.93545	8.4137E-4	1685.11082	53646.976	43.7184	8583.781
1365.0	0.97906	0.0209358	7.28113	7.62923	-2.91377	16.11736	33.76732	1.58079	0.63259	61.16175	73.12689	22.66907	0.34901	8.63037	10107.14267	0.92643	7.91065E-4	1683.84896	53430.472	43.3008	8591.353
1360.0	0.98062	0.019381	7.28378	7.62653	-2.94816	16.08354	33.71445	1.57844	0.63354	62.05763	73.53857	23.00864	0.34857	8.68763	10711.61075	0.91751	7.44146E-4	1682.5924	53215.671	42.9602	8597.727
1355.0	0.98222	0.0177773	7.28645	7.6238	-2.9828	16.0488	33.66161	1.57608	0.63449	62.98229	73.95444	23.35931	0.34812	8.75135	11358.87585	0.90804	6.99593E-4	1681.07669	52998.821	43.37	8606.648
1350.0	0.98548	0.0145213	7.28966	7.62048	-3.02512	15.9926	33.61348	1.57349	0.63553	64.40341	74.33279	23.89953	0.34738	8.87296	12148.0636	0.89285	6.52136E-4	1677.24545	52756.956	48.373	8641.084
1345.0	0.98811	0.0118908	7.29273	7.61729	-3.0657	15.94078	33.56341	1.57098	0.63655	65.67466	74.73477	24.38285	0.34674	8.99888	12955.11163	0.87764	6.09627E-4	1673.41957	52523.009	46.7894	8668.095
1340.0	0.99022	0.00978465	7.29568	7.61423	-3.10463	15.89316	33.51172	1.56854	0.63754	66.81482	75.15655	24.81635	0.34619	9.1262	13783.64473	0.86272	5.71212E-4	1669.70233	52295.854	45.431	8688.806
1335.0	0.99193	0.00806511	7.29854	7.61127	-3.14232	15.84863	33.45884	1.56615	0.63851	67.85858	75.59352	25.2132	0.3457	9.25486	14641.68661	0.84809	5.36071E-4	1666.07696	52073.751	44.4206	8704.952
1330.0	0.99336	0.00663692	7.30133	7.60838	-3.17905	15.80647	33.40508	1.56379	0.63947	68.83004	76.04253	25.58256	0.34525	9.38521	15535.8486	0.83371	5.03647E-4	1662.52709	51855.511	43.648	8717.721
1325.0	0.99457	0.00543172	7.30406	7.60556	-3.21498	15.76622	33.35063	1.56146	0.64043	69.74583	76.50143	25.93074	0.34485	9.51736	16471.88913	0.81957	4.73545E-4	1659.03927	51640.302	43.0418	8727.942
1320.0	0.9956	0.00440287	7.30674	7.60278	-3.25029	15.7274	33.29564	1.55915	0.64138	70.61843	76.96859	26.26251	0.34447	9.65097	17454.94689	0.8057	4.45477E-4	1655.60522	51427.525	42.5554	8736.209
1315.0	0.99649	0.00351407	7.30939	7.60005	-3.28507	15.68979	33.24024	1.55684	0.64233	71.45698	77.44283	26.58134	0.34412	9.78601	18490.15412	0.79209	4.19216E-4	1652.21632	51216.74	42.157	8742.962
1310.0	0.99726	0.00273942	7.312	7.59735	-3.3194	15.65318	33.1845	1.55455	0.64327	72.26861	77.92324	26.88995	0.34379	9.92297	19582.49324	0.77869	3.94585E-4	1648.86431	51007.615	41.825	8748.527
1305.0	0.99794	0.00205818	7.31459	7.59469	-3.35333	15.61741	33.1285	1.55226	0.64422	73.05829	78.40913	27.19022	0.34347	10.06193	20736.92319	0.76552	3.71442E-4	1645.5446	50799.897	41.5436	8753.157
1300.0	0.99854	0.00145581	7.31715	7.59205	-3.38692	15.58236	33.0723	1.54997	0.64517	73.83066	78.89992	27.48393	0.34316	10.20248	21958.94634	0.75258	3.4966E-4	1642.2548	50593.387	41.302	8757.046
1295.0	0.99908	9.17804E-4	7.31969	7.58943	-3.42019	15.54794	33.0159	1.54768	0.64613	74.58851	79.39519	27.77214	0.34287	10.34516	23253.54872	0.73984	3.29143E-4	1638.9896	50387.931	41.0912	8760.348
1290.0	0.99956	4.35127E-4	7.32221	7.58684	-3.45317	15.51407	32.9593	1.5454	0.64708	75.33453	79.89456	28.05588	0.34258	10.48996	24626.53823	0.7273	3.09802E-4	1635.74597	50183.401	40.906	8763.184
1285.0	1.0	0.0	7.32472	7.58427	-3.48591	15.48064	32.90258	1.54311	0.64804	76.07105	80.3977	28.33603	0.3423	 	26083.83796	 	2.91558E-4	 	49979.699	40.7404	8765.654
1280.0	1.0	0.0	7.32678	7.58213	-3.51311	15.46308	32.84391	1.54091	0.64897	76.65544	80.91434	28.5579	0.34211	 	27581.43351	 	2.74842E-4	 	49785.713	38.7972	 
1275.0	1.0	0.0	7.32885	7.58	-3.54027	15.44551	32.78525	1.53869	0.6499	77.24307	81.43309	28.78104	0.34191	 	29175.53196	 	2.58989E-4	 	49587.604	39.6218	 
1270.0	1.0	0.0	7.33091	7.57787	-3.56738	15.42793	32.72658	1.53647	0.65084	77.83387	81.95391	29.00543	0.34171	 	30873.00215	 	2.43959E-4	 	49389.709	39.579	 
1265.0	1.0	0.0	7.33296	7.57574	-3.59444	15.41036	32.66791	1.53425	0.65179	78.42783	82.47674	29.23106	0.34152	 	32681.24675	 	2.29714E-4	 	49192.052	39.5314	 
1260.0	1.0	0.0	7.33502	7.57362	-3.62145	15.39279	32.60924	1.53201	0.65274	79.02488	83.00154	29.45791	0.34132	 	34608.24716	 	2.16218E-4	 	48994.631	39.4842	 
1255.0	1.0	0.0	7.33707	7.5715	-3.64842	15.37522	32.55057	1.52977	0.65369	79.62499	83.52824	29.68597	0.34112	 	36662.61255	 	2.03437E-4	 	48797.443	39.4376	 
1250.0	1.0	0.0	7.33912	7.56938	-3.67533	15.35764	32.49189	1.52751	0.65466	80.22812	84.0568	29.91522	0.34092	 	38853.6332	 	1.91336E-4	 	48600.488	39.391	 
1245.0	1.0	0.0	7.34117	7.56727	-3.7022	15.34006	32.43322	1.52525	0.65563	80.83423	84.58717	30.14565	0.34073	 	41191.33885	 	1.79885E-4	 	48403.761	39.3454	 
1240.0	1.0	0.0	7.34321	7.56516	-3.72903	15.32249	32.37454	1.52299	0.6566	81.44327	85.11929	30.37724	0.34053	 	43686.56238	 	1.69052E-4	 	48207.262	39.2998	 
1235.0	1.0	0.0	7.34526	7.56306	-3.7558	15.30491	32.31586	1.52071	0.65759	82.0552	85.65312	30.60997	0.34033	 	46351.00934	 	1.58808E-4	 	48010.988	39.2548	 
1230.0	1.0	0.0	7.3473	7.56096	-3.78253	15.28733	32.25718	1.51843	0.65858	82.66997	86.1886	30.84384	0.34014	 	49197.334	 	1.49124E-4	 	47814.937	39.2102	 
1225.0	1.0	0.0	7.34934	7.55886	-3.8092	15.26975	32.1985	1.51613	0.65957	83.28756	86.72569	31.07882	0.33994	 	52239.2225	 	1.39973E-4	 	47619.105	39.1664	 
1220.0	1.0	0.0	7.35137	7.55677	-3.83584	15.25217	32.13982	1.51383	0.66058	83.90791	87.26434	31.31491	0.33974	 	55491.48381	 	1.3133E-4	 	47423.491	39.1228	 
1215.0	1.0	0.0	7.3534	7.55468	-3.86242	15.23459	32.08114	1.51152	0.66158	84.53098	87.80449	31.55208	0.33955	 	58970.14934	 	1.23169E-4	 	47228.093	39.0796	 
1210.0	1.0	0.0	7.35543	7.5526	-3.88895	15.217	32.02246	1.5092	0.6626	85.15673	88.3461	31.79031	0.33935	 	62692.58201	 	1.15466E-4	 	47032.907	39.0372	 
1205.0	1.0	0.0	7.35746	7.55051	-3.91544	15.19942	31.96377	1.50688	0.66362	85.78511	88.88911	32.02961	0.33915	 	66677.59577	 	1.082E-4	 	46837.932	38.995	 
1200.0	1.0	0.0	7.35949	7.54844	-3.94188	15.18184	31.90509	1.50454	0.66465	86.4161	89.43349	32.26994	0.33896	 	70945.58662	 	1.01346E-4	 	46643.164	38.9536	 
1195.0	1.0	0.0	7.36151	7.54636	-3.96827	15.16425	31.8464	1.5022	0.66569	87.04963	89.97917	32.5113	0.33876	 	75518.67643	 	9.48861E-5	 	46448.601	38.9126	 
1190.0	1.0	0.0	7.36353	7.54429	-3.99462	15.14666	31.78771	1.49985	0.66673	87.68568	90.52612	32.75367	0.33856	 	80420.8706	 	8.87987E-5	 	46254.24	38.8722	 
1185.0	1.0	0.0	7.36555	7.54223	-4.02091	15.12908	31.72902	1.49749	0.66779	88.3242	91.07428	32.99703	0.33837	 	85678.23142	 	8.30651E-5	 	46060.079	38.8322	 
1180.0	1.0	0.0	7.36756	7.54016	-4.04716	15.11149	31.67033	1.49512	0.66884	88.96514	91.62361	33.24137	0.33817	 	91319.06831	 	7.76668E-5	 	45866.114	38.793	 
1175.0	1.0	0.0	7.36957	7.5381	-4.07336	15.0939	31.61164	1.49274	0.66991	89.60847	92.17406	33.48667	0.33797	 	97374.14715	 	7.25866E-5	 	45672.343	38.7542	 
1170.0	1.0	0.0	7.37158	7.53605	-4.09952	15.07631	31.55294	1.49035	0.67098	90.25415	92.72558	33.73292	0.33778	 	103876.9204	 	6.78077E-5	 	45478.763	38.716	 
1165.0	1.0	0.0	7.37359	7.534	-4.12562	15.05871	31.49425	1.48796	0.67206	90.90212	93.27812	33.9801	0.33758	 	110863.7803	 	6.33142E-5	 	45285.37	38.6786	 
1160.0	1.0	0.0	7.3756	7.53195	-4.15168	15.04112	31.43555	1.48555	0.67315	91.55235	93.83164	34.2282	0.33738	 	118374.3379	 	5.90909E-5	 	45092.162	38.6416	 
1155.0	1.0	0.0	7.3776	7.52991	-4.17769	15.02353	31.37686	1.48314	0.67425	92.20481	94.38609	34.4772	0.33719	 	126451.7303	 	5.51234E-5	 	44899.135	38.6054	 
1150.0	1.0	0.0	7.3796	7.52787	-4.20365	15.00593	31.31816	1.48072	0.67535	92.85943	94.94143	34.72709	0.33699	 	135142.9594	 	5.13977E-5	 	44706.287	38.5696	 
1145.0	1.0	0.0	7.38159	7.52583	-4.22956	14.98834	31.25946	1.47829	0.67646	93.51619	95.49761	34.97785	0.33679	 	144499.2654	 	4.79009E-5	 	44513.613	38.5348	 
1140.0	1.0	0.0	7.38359	7.5238	-4.25543	14.97074	31.20076	1.47585	0.67758	94.17504	96.05458	35.22947	0.33659	 	154576.5392	 	4.46202E-5	 	44321.111	38.5004	 
1135.0	1.0	0.0	7.38558	7.52177	-4.28125	14.95314	31.14206	1.4734	0.6787	94.83594	96.61229	35.48193	0.3364	 	165435.7779	 	4.15438E-5	 	44128.777	38.4668	 
1130.0	1.0	0.0	7.38757	7.51974	-4.30702	14.93554	31.08335	1.47094	0.67984	95.49885	97.17071	35.73521	0.3362	 	177143.5878	 	3.86603E-5	 	43936.608	38.4338	 
1125.0	1.0	0.0	7.38955	7.51772	-4.33274	14.91794	31.02465	1.46847	0.68098	96.16372	97.72979	35.98931	0.336	 	189772.7409	 	3.59589E-5	 	43744.599	38.4018	 
1120.0	1.0	0.0	7.39154	7.5157	-4.35842	14.90034	30.96595	1.46599	0.68213	96.83051	98.28948	36.24419	0.33581	 	203402.7899	 	3.34293E-5	 	43552.748	38.3702	 
1115.0	1.0	0.0	7.39352	7.51369	-4.38404	14.88274	30.90724	1.4635	0.68329	97.49919	98.84973	36.49986	0.33561	 	218120.7501	 	3.10618E-5	 	43361.05	38.3396	 
1110.0	1.0	0.0	7.3955	7.51168	-4.40962	14.86514	30.84853	1.46101	0.68446	98.16971	99.41051	36.75629	0.33541	 	234021.8534	 	2.88469E-5	 	43169.502	38.3096	 
1105.0	1.0	0.0	7.39747	7.50967	-4.43515	14.84754	30.78983	1.4585	0.68564	98.84202	99.97177	37.01347	0.33522	 	251210.3848	 	2.6776E-5	 	42978.1	38.2804	 
1100.0	1.0	0.0	7.39945	7.50767	-4.46064	14.82993	30.73112	1.45599	0.68682	99.51609	100.53346	37.27139	0.33502	 	269800.6104	 	2.48406E-5	 	42786.839	38.2522	 
1095.0	1.0	0.0	7.40142	7.50567	-4.48607	14.81233	30.67241	1.45346	0.68801	100.19187	101.09555	37.53002	0.33482	 	289917.8059	 	2.30327E-5	 	42595.715	38.2248	 
1090.0	1.0	0.0	7.40339	7.50368	-4.51146	14.79472	30.6137	1.45093	0.68921	100.86933	101.65798	37.78935	0.33463	 	311699.4003	 	2.13449E-5	 	42404.725	38.198	 
1085.0	1.0	0.0	7.40535	7.50169	-4.5368	14.77711	30.55498	1.44838	0.69043	101.54842	102.22071	38.04938	0.33443	 	335296.2458	 	1.977E-5	 	42213.863	38.1724	 
1080.0	1.0	0.0	7.40731	7.4997	-4.56209	14.7595	30.49627	1.44583	0.69164	102.22909	102.78371	38.31007	0.33423	 	360874.0298	 	1.83011E-5	 	42023.125	38.1476	 
1075.0	1.0	0.0	7.40927	7.49772	-4.58734	14.74189	30.43756	1.44327	0.69287	102.91131	103.34692	38.57142	0.33404	 	388614.8464	 	1.69319E-5	 	41832.507	38.1236	 
1070.0	1.0	0.0	7.41123	7.49574	-4.61253	14.72428	30.37885	1.44069	0.69411	103.59504	103.91031	38.83341	0.33384	 	418718.946	 	1.56563E-5	 	41642.003	38.1008	 
1065.0	1.0	0.0	7.41318	7.49376	-4.63768	14.70667	30.32013	1.43811	0.69536	104.28023	104.47383	39.09603	0.33364	 	451406.6841	 	1.44685E-5	 	41451.608	38.079	 
1060.0	1.0	0.0	7.41514	7.49179	-4.66278	14.68906	30.26142	1.43551	0.69661	104.96684	105.03745	39.35926	0.33345	 	486920.6945	 	1.33631E-5	 	41261.318	38.058	 
1055.0	1.0	0.0	7.41708	7.48982	-4.68783	14.67144	30.20271	1.43291	0.69788	105.65484	105.60111	39.62308	0.33325	 	525528.3142	 	1.2335E-5	 	41071.128	38.038	 
1050.0	1.0	0.0	7.41903	7.48785	-4.71284	14.65383	30.14399	1.4303	0.69916	106.34417	106.16478	39.88749	0.33305	 	567524.2894	 	1.13792E-5	 	40881.032	38.0192	 
1045.0	1.0	0.0	7.42097	7.48589	-4.73779	14.63621	30.08528	1.42767	0.70044	107.03479	106.72841	40.15246	0.33285	 	613233.8003	 	1.04912E-5	 	40691.025	38.0014	 
1040.0	1.0	0.0	7.42292	7.48394	-4.7627	14.6186	30.02657	1.42504	0.70174	107.72667	107.29197	40.41797	0.33266	 	663015.8419	 	9.66668E-6	 	40501.1	37.985	 
1035.0	1.0	0.0	7.42485	7.48198	-4.78756	14.60098	29.96785	1.42239	0.70304	108.41977	107.85541	40.68402	0.33246	 	717267.0069	 	8.9015E-6	 	40311.253	37.9694	 
1030.0	1.0	0.0	7.42679	7.48003	-4.81238	14.58336	29.90914	1.41974	0.70436	109.11403	108.4187	40.95059	0.33226	 	776425.7212	 	8.19184E-6	 	40121.478	37.955	 
1025.0	1.0	0.0	7.42872	7.47809	-4.83714	14.56574	29.85043	1.41707	0.70568	109.80943	108.98178	41.21766	0.33207	 	840976.9898	 	7.53403E-6	 	39931.768	37.942	 
1020.0	1.0	0.0	7.43065	7.47614	-4.86186	14.54812	29.79172	1.4144	0.70702	110.50591	109.54462	41.48522	0.33187	 	911457.7183	 	6.92467E-6	 	39742.117	37.9302	 
1015.0	1.0	0.0	7.43258	7.4742	-4.88653	14.5305	29.73302	1.41171	0.70836	111.20344	110.10719	41.75326	0.33167	 	988462.6843	 	6.36052E-6	 	39552.518	37.9198	 
1010.0	1.0	0.0	7.4345	7.47227	-4.91115	14.51288	29.67431	1.40901	0.70972	111.90198	110.66943	42.02174	0.33148	 	1072651.244	 	5.83856E-6	 	39362.966	37.9104	 
1005.0	1.0	0.0	7.43643	7.47034	-4.93572	14.49526	29.61561	1.4063	0.71108	112.60148	111.23132	42.29067	0.33128	 	1164754.868	 	5.35592E-6	 	39173.452	37.9028	 
1000.0	1.0	0.0	7.43834	7.46841	-4.96025	14.47763	29.55692	1.40358	0.71246	113.3019	111.7928	42.56003	0.33108	 	1265585.619	 	4.90992E-6	 	38983.971	37.8962	 
995.0	1.0	0.0	7.44026	7.46649	-4.98472	14.46001	29.49822	1.40085	0.71385	114.0032	112.35385	42.82979	0.33089	 	1376045.696	 	4.49805E-6	 	38794.514	37.8914	 
990.0	1.0	0.0	7.44217	7.46457	-5.00915	14.44238	29.43953	1.39811	0.71525	114.70535	112.91442	43.09996	0.33069	 	1497138.176	 	4.11794E-6	 	38605.074	37.888	 
985.0	1.0	0.0	7.44408	7.46265	-5.03353	14.42475	29.38085	1.39536	0.71666	115.40828	113.47447	43.3705	0.33049	 	1629979.144	 	3.76736E-6	 	38415.643	37.8862	 
980.0	1.0	0.0	7.44599	7.46074	-5.05787	14.40712	29.32217	1.39259	0.71808	116.11198	114.03396	43.6414	0.3303	 	1775811.357	 	3.44424E-6	 	38226.214	37.8858	 
975.0	1.0	0.0	7.4479	7.45883	-5.08215	14.38949	29.2635	1.38982	0.71952	116.81639	114.59286	43.91265	0.3301	 	1936019.692	 	3.14662E-6	 	38036.777	37.8874	 
970.0	1.0	0.0	7.4498	7.45693	-5.10639	14.37186	29.20484	1.38703	0.72096	117.52147	115.15113	44.18424	0.3299	 	2112148.595	 	2.87267E-6	 	37847.325	37.8904	 
965.0	1.0	0.0	7.4517	7.45503	-5.13058	14.35423	29.14619	1.38423	0.72242	118.22719	115.70872	44.45615	0.32971	 	2305921.825	 	2.62069E-6	 	37657.848	37.8954	 
960.0	1.0	0.0	7.4536	7.45313	-5.15472	14.3366	29.08754	1.38142	0.72389	118.93349	116.2656	44.72835	0.32951	 	2519264.802	 	2.38907E-6	 	37468.337	37.9022	 
955.0	1.0	0.0	7.45549	7.45124	-5.17882	14.31897	29.02891	1.3786	0.72537	119.64035	116.82174	45.00085	0.32931	 	2754329.931	 	2.17632E-6	 	37278.783	37.9108	 
