T (C)	Fraction solid (wt)-TOTAL	Fraction liquid (wt)-LIQUID	Density (g/(cm)^3)-TOTAL	Molar volume (cm^3)-TOTAL	Volume change (%)-  	Average expansion coeff. (10e-6 1/K)-  	Thermal conductivity (W/(m*K))-TOTAL	Electrical resistivity (10e-6 Ohm*m)-TOTAL	Electrical conductivity (10e6 1/(Ohm*m))-TOTAL	Young's modulus (GPa)-TOTAL	Bulk modulus (GPa)-TOTAL	Shear modulus(GPa)-TOTAL	Poisson's ratio-TOTAL	Liquid viscosity (mPa s)-  	Total viscosity (mPa s)-  	Liquid diffusivity (10e-9 (m^2)/s)-  	Total diffusivity (10e-9 (m^2)/s)-  	Surface Tension (mN/m)-  	Enthalpy (J/mole)-TOTAL	Specific heat (J/(mole K))-TOTAL	Latent heat (J/mole)-TOTAL
1500.0	0.0	1.0	7.03518	7.90304	0.0	26.96145	30.54565	1.89153	0.52867	0.0	108.28008	0.0	0.49974	6.91288	6.91288	1.25191	1.25191	1767.20559	64677.339	 	0.0
1495.0	0.0	1.0	7.03907	7.89867	-0.0552962	26.91281	30.47119	1.89081	0.52887	0.0	108.46658	0.0	0.49974	6.97436	6.97436	1.23738	1.23738	1768.99594	64457.425	43.9828	0.0
1490.0	0.0	1.0	7.04296	7.89431	-0.11044	26.86422	30.39673	1.89008	0.52908	0.0	108.65309	0.0	0.49974	7.03674	7.03674	1.22294	1.22294	1770.78349	64237.985	43.888	0.0
1485.0	0.0	1.0	7.04684	7.88996	-0.16543	26.8157	30.32227	1.88935	0.52928	0.0	108.83959	0.0	0.49974	7.10004	7.10004	1.2086	1.2086	1772.56822	64019.015	43.794	0.0
1480.0	0.0	1.0	7.05071	7.88563	-0.22026	26.76724	30.24781	1.88861	0.52949	0.0	109.02609	0.0	0.49974	7.16427	7.16427	1.19436	1.19436	1774.3501	63800.513	43.7004	0.0
1475.0	0.0	1.0	7.05458	7.88131	-0.27495	26.71883	30.17336	1.88787	0.5297	0.0	109.2126	0.0	0.49974	7.22946	7.22946	1.18021	1.18021	1776.1291	63582.476	43.6074	0.0
1470.0	0.0	1.0	7.05844	7.877	-0.32948	26.67049	30.0989	1.88713	0.52991	0.0	109.3991	0.0	0.49974	7.29562	7.29562	1.16616	1.16616	1777.90518	63364.9	43.5152	0.0
1465.0	0.0	1.0	7.06229	7.8727	-0.38385	26.62221	30.02444	1.88638	0.53011	0.0	109.58561	0.0	0.49974	7.36277	7.36277	1.15221	1.15221	1779.67831	63147.783	43.4234	0.0
1460.0	0.0	1.0	7.06613	7.86842	-0.43807	26.57399	29.94998	1.88563	0.53033	0.0	109.77211	0.0	0.49974	7.43093	7.43093	1.13836	1.13836	1781.44847	62931.123	43.332	0.0
1455.0	0.0	1.0	7.06997	7.86414	-0.49214	26.52584	29.87552	1.88488	0.53054	0.0	109.95862	0.0	0.49974	7.50012	7.50012	1.1246	1.1246	1783.2156	62714.916	43.2414	0.0
1450.0	0.0	1.0	7.07381	7.85988	-0.54606	26.47775	29.80106	1.88412	0.53075	0.0	110.14512	0.0	0.49974	7.57037	7.57037	1.11095	1.11095	1784.9797	62499.194	43.1444	0.0
1445.0	0.0	1.0	7.07763	7.85563	-0.59982	26.42972	29.7266	1.88336	0.53097	0.0	110.33162	0.0	0.49974	7.64169	7.64169	1.09738	1.09738	1786.74071	62284.012	43.0364	0.0
1440.0	0.0	1.0	7.08145	7.8514	-0.65343	26.38176	29.65214	1.8826	0.53118	0.0	110.51813	0.0	0.49974	7.7141	7.7141	1.08392	1.08392	1788.4986	62069.36	42.9304	0.0
1435.0	0.0	1.0	7.08526	7.84717	-0.70688	26.33386	29.57768	1.88183	0.5314	0.0	110.70463	0.0	0.49974	7.78762	7.78762	1.07055	1.07055	1790.25334	61855.236	42.8248	0.0
1430.0	0.0	1.0	7.08907	7.84296	-0.76018	26.28603	29.50322	1.88105	0.53162	0.0	110.89114	0.0	0.49974	7.86229	7.86229	1.05728	1.05728	1792.0049	61641.635	42.7202	0.0
1425.0	0.0	1.0	7.09287	7.83876	-0.81333	26.23827	29.42876	1.88028	0.53184	0.0	111.07764	0.0	0.49974	7.93812	7.93812	1.04411	1.04411	1793.75323	61428.555	42.616	0.0
1420.0	0.0	1.0	7.09666	7.83457	-0.86633	26.19058	29.3543	1.8795	0.53206	0.0	111.26414	0.0	0.49974	8.01513	8.01513	1.03103	1.03103	1795.4983	61215.992	42.5126	0.0
1415.0	0.0	1.0	7.10044	7.83039	-0.91917	26.14295	29.27984	1.87871	0.53228	0.0	111.45065	0.0	0.49974	8.09336	8.09336	1.01805	1.01805	1797.24008	61003.942	42.41	0.0
1410.53	0.0	1.0	7.10382	7.82667	-0.96627	26.10044	29.21328	1.87801	0.53248	0.0	111.61737	0.0	0.49974	8.16432	8.16432	1.00653	1.00653	1798.79424	60814.816	42.3144	0.0060
1410.0	0.0127	0.9873	7.10627	7.82393	-1.00097	26.01696	29.27533	1.87344	0.53378	1.69432E-6	111.24567	5.65577E-7	0.49787	8.16888	8.30703	1.00565	0.98893	1798.73963	60684.458	245.745	107.941
1405.0	0.12391	0.87609	7.12773	7.80037	-1.29903	25.30539	29.82656	1.83335	0.54545	0.0156161	108.03007	0.00527057	0.48144	8.21376	10.78422	0.99718	0.7595	1798.24152	59530.393	230.813	1050.972
1400.0	0.21693	0.78307	7.14623	7.78018	-1.55455	24.70406	30.2936	1.79971	0.55565	0.14901	105.40482	0.0507659	0.4676	8.25923	22.06838	0.98874	0.37004	1797.7963	58533.938	199.291	1836.895
1397.46	0.25796	0.74204	7.15459	7.77109	-1.6696	24.43705	30.50104	1.78475	0.5603	0.30014	104.27368	0.10268	0.46146	8.28254	34.35981	0.98446	0.23731	1797.59014	58081.496	 	2182.525
1395.0	0.32516	0.67484	7.16611	7.75854	-1.8284	24.04843	30.70732	1.77015	0.56492	0.57584	103.23076	0.19832	0.45183	8.30994	84.93419	0.97977	0.0958604	1796.52105	57287.532	249.281	2873.269
1390.0	0.43863	0.56137	7.18599	7.73718	-2.09863	23.39788	31.05445	1.74512	0.57303	1.62632	101.64252	0.56648	0.43545	8.36571	314.51358	0.97032	0.0258094	1794.50488	55914.459	274.615	4036.805
1385.0	0.52543	0.47457	7.20186	7.72015	-2.31411	22.89277	31.31437	1.72543	0.57957	3.46928	100.57305	1.21917	0.4228	8.42145	718.97103	0.961	0.0112564	1792.65522	54819.41	219.01	4922.81
1380.0	0.5933	0.4067	7.21481	7.70631	-2.48927	22.49492	31.50938	1.70958	0.58494	6.1322	99.8542	2.1702	0.41282	8.47798	1276.99822	0.95171	0.00631842	1790.95171	53922.012	179.48	5611.656
1375.0	0.64735	0.35265	7.22569	7.69476	-2.63543	22.17431	31.6526	1.6967	0.58938	9.49504	99.38379	3.37951	0.4048	8.53459	1958.41017	0.94254	0.00410752	1789.37947	53168.693	150.664	6156.908
1370.0	0.69109	0.30891	7.23497	7.68495	-2.75955	21.91242	31.75838	1.68592	0.59315	13.3607	99.09368	4.77768	0.39824	8.5921	2737.05663	0.93339	0.00293008	1787.92297	52522.771	129.184	6595.247
1365.0	0.72699	0.27301	7.24308	7.67639	-2.86782	21.69274	31.83482	1.67675	0.59639	17.51612	98.93733	6.28805	0.39281	8.64979	3593.22381	0.92435	0.00222513	1786.57336	51958.496	112.855	6952.421
1360.0	0.75681	0.24319	7.25025	7.66888	-2.96292	21.5082	31.8882	1.66884	0.59922	21.77353	98.88325	7.84207	0.38825	8.70844	4513.80902	0.91532	0.00176591	1785.31625	51457.386	100.222	7246.907
1355.0	0.78184	0.21816	7.25668	7.66215	-3.04807	21.35017	31.92317	1.6619	0.60172	25.99183	98.90747	9.38752	0.38438	8.76769	5490.76541	0.90635	0.00144727	1784.14376	51005.91	90.2952	7492.235
1350.0	0.80307	0.19693	7.26253	7.65602	-3.12554	21.21261	31.94324	1.65576	0.60395	30.0747	98.99275	10.88825	0.38106	8.82757	6520.5058	0.89744	0.00121497	1783.04914	50593.981	82.3858	7698.49
1345.0	0.82123	0.17877	7.26791	7.65041	-3.19663	21.09202	31.95116	1.65025	0.60597	33.96307	99.12686	12.32164	0.37819	8.88808	7602.03719	0.88858	0.0010389	1782.02441	50213.824	76.0314	7873.441
1340.0	0.83697	0.16303	7.27292	7.64521	-3.2624	20.98562	31.94956	1.64523	0.60782	37.65	99.29943	13.68431	0.37566	8.94965	8741.34557	0.87974	9.00706E-4	1781.05909	49858.754	71.014	8023.771
1335.0	0.85073	0.14927	7.27764	7.64032	-3.3242	20.8897	31.93989	1.64063	0.60952	41.12327	99.50313	14.97103	0.37343	9.01191	9941.59751	0.87096	7.89509E-4	1780.15077	49524.38	66.8748	8153.87
1330.0	0.86283	0.13717	7.28211	7.63571	-3.38258	20.80281	31.93016	1.63603	0.61124	44.38451	99.73231	16.18178	0.37143	9.07519	11207.28238	0.86219	6.98169E-4	1779.29298	49207.25	63.426	8267.186
1325.03	0.87336	0.12664	7.28631	7.63138	-3.43741	20.72502	31.90822	1.63208	0.61272	47.39151	99.98161	17.30031	0.36967	9.13875	12527.99597	0.85354	6.2263E-4	1778.48639	48907.498	 	8364.719
1325.0	0.87344	0.12656	7.28635	7.63134	-3.43788	20.72411	31.90815	1.63205	0.61273	47.41268	99.98279	17.3082	0.36966	9.13915	12536.53285	0.85349	6.22195E-4	1778.48841	48905.644	60.3212	8365.436
1320.0	0.8856	0.1144	7.29169	7.62584	-3.50751	20.60354	31.89487	1.62762	0.61439	51.06744	100.21492	18.66994	0.36764	9.21596	14113.50508	0.84373	5.50945E-4	1778.73246	48582.597	64.6094	8485.583
1315.0	0.89613	0.10387	7.29665	7.62074	-3.57201	20.49683	31.87436	1.62356	0.61593	54.40401	100.47159	19.9157	0.36586	9.29297	15762.64285	0.83411	4.91755E-4	1778.98735	48277.659	60.9876	8588.074
1310.0	0.90533	0.0946709	7.30129	7.616	-3.63198	20.40247	31.84796	1.61979	0.61736	57.46008	100.74834	21.05885	0.36427	9.37105	17493.95973	0.82456	4.41693E-4	1779.2463	47987.581	58.0156	8676.155
1305.0	0.91341	0.0865944	7.30565	7.61155	-3.68829	20.31802	31.81657	1.61627	0.61871	60.26556	101.04133	22.11002	0.36286	9.45031	19316.39201	0.81506	3.98758E-4	1779.51023	47709.836	55.549	8752.349
1300.0	0.92055	0.0794482	7.3098	7.60732	-3.74177	20.2412	31.78101	1.61295	0.61998	62.85458	101.34765	23.08156	0.36158	9.52982	21241.58752	0.8057	3.61468E-4	1779.78125	47442.431	53.481	8818.65
1295.0	0.92691	0.0730907	7.31377	7.6033	-3.79268	20.17132	31.74199	1.6098	0.6212	65.25119	101.66496	23.98215	0.36041	9.61053	23279.69784	0.79639	3.28774E-4	1780.0558	47183.78	51.7302	8876.641
1290.0	0.9326	0.0674047	7.31757	7.59945	-3.84141	20.10732	31.6999	1.6068	0.62236	67.47822	101.99166	24.82006	0.35935	9.69249	25443.10983	0.78714	2.99859E-4	1780.33222	46932.603	50.2354	8927.597
1285.0	0.9377	0.0622952	7.32125	7.59573	-3.88851	20.04767	31.65524	1.60392	0.62347	69.55607	102.32595	25.60277	0.35837	9.77488	27743.4744	0.77801	2.74116E-4	1780.61591	46687.86	48.9486	8972.557
1280.0	0.94232	0.0576834	7.32482	7.59213	-3.93398	19.99236	31.60828	1.60114	0.62455	71.50104	102.66708	26.33622	0.35747	9.85855	30194.74504	0.76893	2.51055E-4	1780.90086	46448.699	47.8322	9012.37
1275.0	0.9465	0.0535048	7.32828	7.58865	-3.97805	19.94077	31.55938	1.59846	0.6256	73.32863	103.01384	27.02609	0.35663	9.94362	32810.81252	0.7599	2.30294E-4	1781.18668	46214.41	46.8578	9047.744
1270.0	0.95029	0.0497051	7.33166	7.58526	-4.02098	19.89222	31.5088	1.59586	0.62662	75.05115	103.36542	27.6769	0.35584	10.02961	35606.40009	0.75095	2.11527E-4	1781.47533	45984.405	46.001	9079.264
1265.0	0.95376	0.0462383	7.33496	7.58194	-4.06297	19.84609	31.45665	1.59332	0.62762	76.68015	103.72105	28.29293	0.35511	10.11663	38598.67426	0.74208	1.94497E-4	1781.76822	45758.187	45.2436	9107.424
1260.0	0.95693	0.0430653	7.3382	7.5787	-4.10399	19.80249	31.40319	1.59085	0.6286	78.22518	104.08037	28.87768	0.35442	10.2052	41804.65326	0.73325	1.78997E-4	1782.06117	45535.337	44.57	9132.642
1255.0	0.95985	0.0401533	7.34139	7.57551	-4.14427	19.76081	31.34853	1.58842	0.62955	79.69509	104.44269	29.43443	0.35377	10.29475	45243.93854	0.7245	1.64851E-4	1782.35721	45315.496	43.9682	9155.274
1250.0	0.96253	0.0374725	7.34452	7.57239	-4.18384	19.72094	31.2928	1.58605	0.6305	81.09692	104.8077	29.96579	0.35316	10.38597	48936.8099	0.71578	1.51913E-4	1782.65539	45098.359	43.4274	9175.623
1245.0	0.965	0.0349992	7.34761	7.5693	-4.22284	19.68252	31.23612	1.58371	0.63143	82.43799	105.17502	30.47447	0.35257	10.47834	52905.87064	0.70715	1.40055E-4	1782.95795	44883.66	42.9398	9193.952
1240.0	0.96729	0.0327107	7.35066	7.56627	-4.26127	19.6455	31.17858	1.58141	0.63235	83.72359	105.54432	30.96244	0.35202	10.5725	57175.98574	0.69854	1.29168E-4	1783.262	44671.166	42.4988	9210.501
1235.0	0.96941	0.0305886	7.35368	7.56327	-4.29921	19.60969	31.12023	1.57914	0.63326	84.95877	105.91541	31.43157	0.35149	10.66792	61773.56937	0.69	1.19159E-4	1783.5693	44460.676	42.098	9225.472
1230.75	0.97139	0.0286061	7.35635	7.56065	-4.33234	19.57635	31.07058	1.5772	0.63404	86.09078	106.23141	31.86173	0.35101	10.75059	66054.11416	0.68277	1.11123E-4	1783.82698	44280.671	 	9239.492
1230.0	0.97236	0.0276406	7.35696	7.55999	-4.3407	19.56259	31.06379	1.57676	0.63421	86.55149	106.29188	32.03718	0.3508	10.79136	67014.77492	0.67985	1.09476E-4	1783.59778	44237.615	44.6122	9253.436
1225.0	0.97789	0.022111	7.36088	7.55577	-4.39406	19.47819	31.01565	1.57395	0.63534	89.28831	106.69527	33.08022	0.34957	11.06815	73532.46012	0.66064	9.94404E-5	1782.15902	43963.721	54.7788	9332.655
1222.46	0.98012	0.0198785	7.36275	7.55376	-4.41954	19.44004	30.98976	1.5726	0.63589	90.45743	106.89822	33.52619	0.34906	11.21064	76895.68319	0.65114	9.49302E-5	1781.43857	43833.727	 	9364.09
1220.0	0.9826	0.0173963	7.36474	7.55167	-4.44601	19.39751	30.96666	1.57118	0.63646	91.73391	107.09477	34.01356	0.34849	11.34494	80413.18538	0.64237	9.06281E-5	1779.66931	43702.191	52.306	9399.928
1215.0	0.98657	0.0134301	7.36858	7.54766	-4.49676	19.3199	30.91593	1.56849	0.63756	93.90439	107.49203	34.84289	0.34754	11.62082	87683.3521	0.62502	8.28355E-5	1776.4022	43451.918	50.0546	9456.358
1210.0	0.98951	0.01049	7.37221	7.54387	-4.54461	19.25075	30.86169	1.56597	0.63858	95.66565	107.8872	35.51643	0.34678	11.9012	95241.2536	0.60825	7.60058E-5	1773.42132	43217.721	46.8394	9497.13
1205.0	0.99177	0.0082317	7.37568	7.54025	-4.59044	19.18742	30.80512	1.56356	0.63957	97.15156	108.28078	36.08505	0.34615	12.18694	103204.9322	0.59198	6.99044E-5	1770.68125	42994.325	44.6792	9527.513
1200.0	0.99355	0.006449	7.37905	7.53675	-4.63476	19.12831	30.74701	1.56121	0.64053	98.4439	108.67309	36.57986	0.3456	12.47732	111666.2533	0.57625	6.4389E-5	1768.15162	42778.543	43.1564	9550.692
1195.0	0.99499	0.00500699	7.38233	7.53334	-4.67795	19.07234	30.68772	1.55892	0.64147	99.59545	109.0644	37.02099	0.34512	12.77218	120709.5817	0.56104	5.93629E-5	1765.81393	42568.343	42.04	9568.697
1190.0	0.99618	0.00382056	7.38555	7.53	-4.72019	19.01892	30.62751	1.55666	0.6424	100.64114	109.4548	37.42174	0.34469	13.07198	130412.2847	0.5463	5.47592E-5	1763.63456	42362.369	41.1948	9582.882
1185.0	0.99717	0.00282845	7.38872	7.52672	-4.76165	18.96753	30.56674	1.55443	0.64332	101.60617	109.84441	37.79172	0.34429	13.37525	140852.4161	0.53209	5.05271E-5	1761.61756	42159.688	40.5362	9594.178
1182.09	0.99768	0.00232299	7.39054	7.52484	-4.78548	18.93844	30.53109	1.55314	0.64386	102.13774	110.07095	37.99558	0.34407	13.55449	147304.0491	0.52401	4.82177E-5	1760.48828	42042.923	 	9599.681
1182.09	0.99768	0.00232299	7.39054	7.52484	-4.78548	18.93844	30.53109	1.55314	0.64386	102.13774	110.07095	37.99558	0.34407	13.55449	147304.0274	0.52401	4.82177E-5	1760.48828	42042.923	 	9599.681
1180.0	0.99803	0.00197144	7.39187	7.52348	-4.80267	18.91713	30.5048	1.55224	0.64423	102.51524	110.23472	38.14035	0.34392	13.67421	152126.1569	0.51867	4.66223E-5	1759.44477	41959.314	40.0748	9603.569
1175.0	0.99878	0.00121837	7.39501	7.52026	-4.84342	18.86717	30.44177	1.55011	0.64512	103.38252	110.62598	38.47304	0.34357	13.96432	164322.0111	0.50615	4.30135E-5	1757.08214	41760.616	39.7396	9611.683
1170.0	0.99943	5.67177E-4	7.39812	7.51708	-4.88361	18.81862	30.37854	1.54797	0.64601	104.20618	111.01626	38.78912	0.34324	14.25825	177512.0331	0.49401	3.96799E-5	1754.85521	41563.848	39.3536	9618.263
1165.0	1.0	0.0	7.40119	7.51395	-4.92331	18.77124	30.31512	1.54583	0.6469	104.99454	111.40562	39.09175	0.34292	 	191795.1152	 	3.65977E-5	 	41368.696	39.0304	9623.624
1160.0	1.0	0.0	7.40357	7.51154	-4.95379	18.75371	30.24947	1.5438	0.64775	105.48853	111.78927	39.28145	0.34273	 	206835.5064	 	3.38184E-5	 	41172.592	39.2208	 
1155.0	1.0	0.0	7.40594	7.50913	-4.98423	18.7362	30.18381	1.54176	0.64861	105.983	112.17245	39.47138	0.34253	 	223177.8025	 	3.12327E-5	 	40987.009	37.1166	 
1150.0	1.0	0.0	7.40831	7.50673	-5.01462	18.71869	30.11815	1.53971	0.64947	106.47793	112.55516	39.66154	0.34233	 	240944.9268	 	2.88283E-5	 	40801.695	37.0628	 
1145.0	1.0	0.0	7.41068	7.50433	-5.04495	18.7012	30.05249	1.53766	0.65034	106.97329	112.93737	39.85192	0.34213	 	260272.3495	 	2.65938E-5	 	40616.633	37.0124	 
1140.0	1.0	0.0	7.41304	7.50194	-5.07524	18.6837	29.98682	1.53559	0.65122	107.46908	113.31908	40.04251	0.34194	 	281309.4625	 	2.45183E-5	 	40431.825	36.9616	 
1135.0	1.0	0.0	7.4154	7.49955	-5.10548	18.66622	29.92115	1.53352	0.6521	107.96527	113.70026	40.23331	0.34174	 	304221.1154	 	2.25916E-5	 	40247.273	36.9104	 
1130.0	1.0	0.0	7.41776	7.49716	-5.13567	18.64875	29.85548	1.53143	0.65298	108.46185	114.0809	40.42431	0.34154	 	329189.3318	 	2.08039E-5	 	40062.977	36.8592	 
1125.0	1.0	0.0	7.42012	7.49478	-5.16581	18.63128	29.7898	1.52934	0.65388	108.95881	114.46099	40.6155	0.34135	 	356415.2292	 	1.91463E-5	 	39878.938	36.8078	 
1120.0	1.0	0.0	7.42248	7.4924	-5.19591	18.61382	29.72412	1.52724	0.65478	109.45613	114.84052	40.80689	0.34115	 	386121.1678	 	1.76101E-5	 	39695.153	36.757	 
1115.0	1.0	0.0	7.42483	7.49003	-5.22595	18.59636	29.65843	1.52513	0.65568	109.95379	115.21946	40.99846	0.34095	 	418553.1577	 	1.61872E-5	 	39511.622	36.7062	 
1110.0	1.0	0.0	7.42718	7.48766	-5.25595	18.57892	29.59274	1.52301	0.6566	110.45177	115.5978	41.19021	0.34075	 	453983.5565	 	1.48702E-5	 	39328.343	36.6558	 
1105.0	1.0	0.0	7.42953	7.48529	-5.28589	18.56148	29.52705	1.52088	0.65752	110.95007	115.97553	41.38213	0.34056	 	492714.0954	 	1.36517E-5	 	39145.314	36.6058	 
1100.0	1.0	0.0	7.43187	7.48293	-5.31579	18.54405	29.46135	1.51874	0.65844	111.44866	116.35264	41.57422	0.34036	 	535079.2764	 	1.25253E-5	 	38962.535	36.5558	 
1095.0	1.0	0.0	7.43422	7.48057	-5.34563	18.52663	29.39565	1.51659	0.65937	111.94753	116.72911	41.76646	0.34016	 	581450.1877	 	1.14844E-5	 	38780.003	36.5064	 
1090.0	1.0	0.0	7.43656	7.47821	-5.37543	18.50921	29.32994	1.51443	0.66031	112.44666	117.10492	41.95887	0.33996	 	632238.7936	 	1.05232E-5	 	38597.718	36.457	 
1085.0	1.0	0.0	7.4389	7.47586	-5.40518	18.49181	29.26423	1.51227	0.66126	112.94605	117.48007	42.15142	0.33977	 	687902.7597	 	9.63624E-6	 	38415.677	36.4082	 
1080.0	1.0	0.0	7.44123	7.47352	-5.43488	18.47441	29.19852	1.51009	0.66221	113.44566	117.85454	42.34411	0.33957	 	748950.8865	 	8.81819E-6	 	38233.88	36.3594	 
1075.0	1.0	0.0	7.44357	7.47117	-5.46454	18.45702	29.1328	1.5079	0.66317	113.9455	118.22831	42.53695	0.33937	 	815949.2306	 	8.06421E-6	 	38052.325	36.311	 
1070.0	1.0	0.0	7.4459	7.46883	-5.49414	18.43963	29.06708	1.50571	0.66414	114.44553	118.60138	42.72992	0.33917	 	889528.0074	 	7.36973E-6	 	37871.01	36.263	 
1065.0	1.0	0.0	7.44823	7.4665	-5.5237	18.42226	29.00135	1.5035	0.66511	114.94575	118.97373	42.92301	0.33898	 	970389.3803	 	6.73047E-6	 	37689.934	36.2152	 
1060.0	1.0	0.0	7.45055	7.46417	-5.5532	18.40489	28.93562	1.50129	0.66609	115.44615	119.34534	43.11622	0.33878	 	1059316.258	 	6.14243E-6	 	37509.095	36.1678	 
1055.0	1.0	0.0	7.45288	7.46184	-5.58266	18.38752	28.86988	1.49906	0.66708	115.9467	119.7162	43.30955	0.33858	 	1157182.236	 	5.60186E-6	 	37328.491	36.1208	 
1050.0	1.0	0.0	7.4552	7.45951	-5.61207	18.37017	28.80414	1.49683	0.66808	116.44739	120.08631	43.50299	0.33838	 	1264962.847	 	5.10526E-6	 	37148.121	36.074	 
1045.0	1.0	0.0	7.45752	7.45719	-5.64143	18.35283	28.7384	1.49458	0.66908	116.94821	120.45564	43.69653	0.33819	 	1383748.289	 	4.64937E-6	 	36967.983	36.0276	 
1040.0	1.0	0.0	7.45984	7.45488	-5.67074	18.33549	28.67265	1.49233	0.67009	117.44914	120.82419	43.89017	0.33799	 	1514757.857	 	4.23114E-6	 	36788.075	35.9816	 
1035.0	1.0	0.0	7.46215	7.45256	-5.7	18.31816	28.6069	1.49006	0.67111	117.95016	121.19195	44.08391	0.33779	 	1659356.3	 	3.84773E-6	 	36608.396	35.9358	 
1030.0	1.0	0.0	7.46447	7.45025	-5.72922	18.30083	28.54114	1.48779	0.67214	118.45127	121.55889	44.27773	0.33759	 	1819072.387	 	3.49648E-6	 	36428.943	35.8906	 
1025.0	1.0	0.0	7.46678	7.44795	-5.75838	18.28352	28.47538	1.4855	0.67317	118.95244	121.92501	44.47164	0.3374	 	1995620.001	 	3.17493E-6	 	36249.716	35.8454	 
1020.0	1.0	0.0	7.46908	7.44565	-5.7875	18.26621	28.40961	1.48321	0.67422	119.45367	122.29029	44.66562	0.3372	 	2190922.11	 	2.88077E-6	 	36070.711	35.801	 
1015.0	1.0	0.0	7.47139	7.44335	-5.81657	18.24891	28.34384	1.4809	0.67527	119.95493	122.65474	44.85967	0.337	 	2407138.057	 	2.61187E-6	 	35891.927	35.7568	 
1010.0	1.0	0.0	7.47369	7.44106	-5.84559	18.23162	28.27807	1.47858	0.67632	120.45621	123.01832	45.05379	0.3368	 	2646694.625	 	2.36625E-6	 	35713.363	35.7128	 
1005.0	1.0	0.0	7.47599	7.43877	-5.87457	18.21433	28.21229	1.47625	0.67739	120.9575	123.38103	45.24796	0.33661	 	2912321.455	 	2.14205E-6	 	35535.015	35.6696	 
1000.0	1.0	0.0	7.47829	7.43648	-5.90349	18.19705	28.1465	1.47392	0.67846	121.45879	123.74286	45.4422	0.33641	 	3207091.456	 	1.93756E-6	 	35356.882	35.6266	 
995.0	1.0	0.0	7.48059	7.4342	-5.93237	18.17978	28.08071	1.47157	0.67955	121.96005	124.1038	45.63648	0.33621	 	3534466.947	 	1.75119E-6	 	35178.962	35.584	 
