T (C)	Fraction solid (wt)-TOTAL	Fraction liquid (wt)-LIQUID	Density (g/(cm)^3)-TOTAL	Molar volume (cm^3)-TOTAL	Volume change (%)-  	Average expansion coeff. (10e-6 1/K)-  	Thermal conductivity (W/(m*K))-TOTAL	Electrical resistivity (10e-6 Ohm*m)-TOTAL	Electrical conductivity (10e6 1/(Ohm*m))-TOTAL	Young's modulus (GPa)-TOTAL	Bulk modulus (GPa)-TOTAL	Shear modulus(GPa)-TOTAL	Poisson's ratio-TOTAL	Liquid viscosity (mPa s)-  	Total viscosity (mPa s)-  	Liquid diffusivity (10e-9 (m^2)/s)-  	Total diffusivity (10e-9 (m^2)/s)-  	Surface Tension (mN/m)-  	Enthalpy (J/mole)-TOTAL	Specific heat (J/(mole K))-TOTAL	Latent heat (J/mole)-TOTAL
1500.0	0.0	1.0	6.95617	7.88573	0.0	30.40304	35.73216	1.61698	0.61844	0.0	102.96606	0.0	0.49974	6.41961	6.41961	1.3481	1.3481	1520.56163	65867.061	 	0.0
1495.0	0.0	1.0	6.96007	7.88132	-0.055953	30.36251	35.65673	1.61583	0.61888	0.0	103.16192	0.0	0.49974	6.47485	6.47485	1.33283	1.33283	1520.73126	65647.659	43.8804	0.0
1490.0	0.0	1.0	6.96395	7.87692	-0.11175	30.3221	35.58126	1.61468	0.61932	0.0	103.35778	0.0	0.49974	6.53089	6.53089	1.31766	1.31766	1520.88763	65428.754	43.781	0.0
1485.0	0.0	1.0	6.96783	7.87253	-0.16739	30.28181	35.50577	1.61352	0.61976	0.0	103.55364	0.0	0.49974	6.58773	6.58773	1.30259	1.30259	1521.03072	65210.342	43.6824	0.0
1480.0	0.0	1.0	6.97171	7.86815	-0.22288	30.24166	35.43024	1.61236	0.62021	0.0	103.74951	0.0	0.49974	6.64539	6.64539	1.28761	1.28761	1521.16049	64992.421	43.5842	0.0
1475.0	0.0	1.0	6.97558	7.86379	-0.27821	30.20163	35.35468	1.6112	0.62066	0.0	103.94537	0.0	0.49974	6.70389	6.70389	1.27274	1.27274	1521.27691	64774.986	43.487	0.0
1470.0	0.0	1.0	6.97944	7.85944	-0.33339	30.16173	35.27909	1.61003	0.6211	0.0	104.14123	0.0	0.49974	6.76325	6.76325	1.25796	1.25796	1521.37996	64558.035	43.3902	0.0
1465.0	0.0	1.0	6.98329	7.8551	-0.38841	30.12196	35.20347	1.60886	0.62156	0.0	104.3371	0.0	0.49974	6.82348	6.82348	1.24328	1.24328	1521.4696	64341.564	43.2942	0.0
1460.0	0.0	1.0	6.98714	7.85077	-0.44327	30.08232	35.12782	1.60769	0.62201	0.0	104.53296	0.0	0.49974	6.8846	6.8846	1.2287	1.2287	1521.5458	64125.571	43.1986	0.0
1455.0	0.0	1.0	6.99098	7.84646	-0.49798	30.04282	35.05213	1.60651	0.62247	0.0	104.72882	0.0	0.49974	6.94662	6.94662	1.21421	1.21421	1521.60854	63910.052	43.1038	0.0
1450.0	0.0	1.0	6.99482	7.84216	-0.55254	30.00345	34.97642	1.60533	0.62292	0.0	104.92468	0.0	0.49974	7.00957	7.00957	1.19983	1.19983	1521.6578	63695.027	43.005	0.0
1445.0	0.0	1.0	6.99865	7.83787	-0.60694	29.96422	34.90067	1.60415	0.62338	0.0	105.12055	0.0	0.49974	7.07346	7.07346	1.18554	1.18554	1521.69355	63480.532	42.899	0.0
1440.0	0.0	1.0	7.00247	7.83359	-0.66118	29.92513	34.82489	1.60296	0.62384	0.0	105.31641	0.0	0.49974	7.13831	7.13831	1.17135	1.17135	1521.71578	63266.557	42.795	0.0
1435.0	0.0	1.0	7.00628	7.82933	-0.71527	29.88618	34.74908	1.60177	0.62431	0.0	105.51227	0.0	0.49974	7.20414	7.20414	1.15726	1.15726	1521.72446	63053.101	42.6912	0.0
1430.0	0.0	1.0	7.01009	7.82507	-0.7692	29.84737	34.67324	1.60058	0.62478	0.0	105.70813	0.0	0.49974	7.27097	7.27097	1.14327	1.14327	1521.71959	62840.159	42.5884	0.0
1425.0	0.0	1.0	7.01389	7.82083	-0.82298	29.8087	34.59737	1.59938	0.62524	0.0	105.904	0.0	0.49974	7.33881	7.33881	1.12937	1.12937	1521.70115	62627.729	42.486	0.0
1420.0	0.0	1.0	7.01769	7.8166	-0.8766	29.77017	34.52146	1.59817	0.62571	0.0	106.09986	0.0	0.49974	7.4077	7.4077	1.11557	1.11557	1521.66912	62415.806	42.3846	0.0
1415.0	0.0	1.0	7.02148	7.81239	-0.93006	29.73179	34.44553	1.59697	0.62619	0.0	106.29572	0.0	0.49974	7.47765	7.47765	1.10188	1.10188	1521.62351	62204.388	42.2836	0.0
1410.0	0.0	1.0	7.02526	7.80818	-0.98338	29.69356	34.36956	1.59576	0.62666	0.0	106.49159	0.0	0.49974	7.54868	7.54868	1.08828	1.08828	1521.5643	61993.471	42.1834	0.0
1405.0	0.0	1.0	7.02903	7.80399	-1.03653	29.65548	34.29356	1.59454	0.62714	0.0	106.68745	0.0	0.49974	7.62081	7.62081	1.07477	1.07477	1521.4915	61783.05	42.0842	0.0
1400.42	0.0	1.0	7.03248	7.80016	-1.08514	29.62069	34.22384	1.59342	0.62758	0.0	106.86705	0.0	0.49974	7.68794	7.68794	1.06248	1.06248	1521.4128	61590.567	41.9827	0.0
1400.0	0.01076	0.98924	7.03446	7.79801	-1.11234	29.5548	34.24269	1.59215	0.62808	9.57237E-7	106.77308	3.19438E-7	0.49831	7.69155	7.80195	1.06171	1.04669	1520.85729	61452.482	332.591	120.639
1395.0	0.13177	0.86823	7.05646	7.77369	-1.42085	28.81107	34.45446	1.57764	0.63386	0.0219152	105.72624	0.0073934	0.48208	7.73694	12.88228	1.05233	0.63202	1514.35607	59892.048	312.087	1471.636
1390.0	0.23204	0.76796	7.07518	7.75308	-1.68217	28.19259	34.62348	1.56523	0.63888	0.21393	104.91444	0.0728403	0.46847	7.78286	48.10257	1.04299	0.16875	1508.19937	58570.959	264.218	2583.775
1385.0	0.31603	0.68397	7.09128	7.7355	-1.90505	27.67648	34.75789	1.55449	0.6433	0.74635	104.28908	0.25613	0.45696	7.82963	148.79331	1.03364	0.054391	1502.35565	57437.158	226.76	3509.11
1380.0	0.38711	0.61289	7.10529	7.72029	-2.09802	27.24004	34.86394	1.54509	0.64721	1.70103	103.81217	0.58773	0.44712	7.87724	339.80622	1.02429	0.0237448	1496.79972	56451.852	197.061	4286.431
1375.0	0.4478	0.5522	7.11767	7.70691	-2.26761	26.86585	34.94636	1.53678	0.65071	3.08059	103.45516	1.07066	0.43864	7.92542	634.46746	1.01499	0.0126787	1491.50925	55585.704	173.23	4945.071
1370.0	0.50005	0.49995	7.1287	7.69504	-2.41818	26.54236	35.00897	1.52938	0.65386	4.84057	103.19518	1.691	0.43127	7.97445	1038.08802	1.00569	0.00772556	1486.46328	54816.214	153.898	5507.528
1365.0	0.54535	0.45465	7.13865	7.68437	-2.55346	26.25961	35.05509	1.52272	0.65672	6.91525	103.01531	2.42671	0.42482	8.02401	1551.28616	0.99643	0.00515405	1481.64378	54125.911	138.061	5991.27
1360.0	0.58491	0.41509	7.14767	7.67474	-2.67561	26.01193	35.08726	1.51668	0.65933	9.23454	102.90224	3.25358	0.41914	8.07446	2172.65944	0.98719	0.00366878	1477.03326	53501.079	124.966	6410.011
1355.0	0.61965	0.38035	7.15595	7.66593	-2.78737	25.79195	35.10746	1.51117	0.66174	11.7331	102.84463	4.14862	0.41409	8.12549	2900.27075	0.97798	0.00273995	1472.61767	52930.831	114.05	6774.634
1350.0	0.65034	0.34966	7.16356	7.65788	-2.88939	25.59808	35.1177	1.50609	0.66397	14.35316	102.8341	5.09121	0.4096	8.17773	3732.56517	0.96875	0.00212245	1468.38115	52406.454	104.875	7093.849
1345.0	0.67758	0.32242	7.17067	7.65036	-2.98471	25.42196	35.11903	1.50139	0.66605	17.04705	102.86285	6.0641	0.40557	8.23022	4668.60384	0.95961	0.00169168	1464.31549	51920.899	97.111	7374.702
1340.0	0.70189	0.29811	7.1773	7.64341	-3.0729	25.26499	35.11299	1.49701	0.668	19.77567	102.92563	7.05296	0.40194	8.28397	5708.89808	0.95044	0.00137914	1460.40559	51468.409	90.498	7622.948
1335.0	0.72365	0.27635	7.18355	7.63684	-3.15617	25.12103	35.10032	1.49291	0.66983	22.5101	103.01673	8.04707	0.39865	8.33829	6855.1579	0.94132	0.00114497	1456.64493	51044.267	84.8284	7843.301
1330.0	0.74324	0.25676	7.18945	7.6307	-3.23412	24.99139	35.08213	1.48904	0.67157	25.22416	103.13327	9.0366	0.39567	8.39359	8109.66514	0.93221	9.64846E-4	1453.02094	50644.572	79.939	8039.659
1325.0	0.76093	0.23907	7.19508	7.62481	-3.3087	24.87055	35.05876	1.48538	0.67323	27.9015	103.27046	10.01535	0.39294	8.44948	9476.34144	0.92315	8.23121E-4	1449.5295	50266.075	75.6994	8215.267
1320.0	0.77695	0.22305	7.20044	7.61925	-3.37931	24.76038	35.03118	1.4819	0.67481	30.52811	103.4266	10.97787	0.39044	8.50637	10960.20581	0.91411	7.09455E-4	1446.15938	49906.056	72.0038	8372.845
1315.0	0.79152	0.20848	7.20558	7.61392	-3.44681	24.65846	34.99975	1.47858	0.67633	33.09663	103.59871	11.92122	0.38814	8.56423	12568.45047	0.90509	6.16732E-4	1442.90468	49562.222	68.7668	8514.682
1310.0	0.80481	0.19519	7.21053	7.60882	-3.51147	24.56412	34.96495	1.47539	0.67779	35.5979	103.78492	12.84177	0.38602	8.62308	14307.15345	0.89608	5.40077E-4	1439.75886	49232.63	65.9184	8642.718
1305.0	0.81696	0.18304	7.21531	7.60388	-3.57412	24.47498	34.92706	1.47233	0.6792	38.03226	103.98301	13.73944	0.38405	8.68265	16186.40012	0.88712	4.75866E-4	1436.718	48915.626	63.4008	8758.605
1300.0	0.82811	0.17189	7.21994	7.59914	-3.63424	24.39262	34.88662	1.46936	0.68057	40.3914	104.19233	14.61093	0.38223	8.74324	18213.92476	0.87818	4.21554E-4	1433.7738	48609.796	61.166	8863.754
1295.0	0.83835	0.16165	7.22443	7.59454	-3.69264	24.31476	34.84378	1.46649	0.6819	42.67952	104.41071	15.45761	0.38053	8.80488	20402.30998	0.86926	3.75141E-4	1430.92331	48313.924	59.1744	8959.379
1292.89	0.84213	0.15787	7.2262	7.59272	-3.7157	24.28636	34.8252	1.46531	0.68245	43.55706	104.50751	15.78271	0.3799	8.83115	21344.59989	0.86551	3.58099E-4	1429.74844	48195.298	 	8993.817
1290.0	0.84726	0.15274	7.22861	7.59022	-3.74745	24.247	34.80003	1.46366	0.68322	44.66687	104.63261	16.1951	0.37902	8.86517	22697.10044	0.8606	3.36138E-4	1428.06283	48033.806	56.0236	9039.68
1288.01	0.85063	0.14937	7.23024	7.58854	-3.76874	24.22154	34.78236	1.46253	0.68375	45.41185	104.72093	16.47212	0.37845	8.88883	23660.50077	0.85721	3.2204E-4	1426.91904	47924.279	 	9069.663
1285.0	0.85624	0.14376	7.23313	7.58555	-3.80663	24.16562	34.75547	1.46084	0.68454	46.59451	104.84638	16.91281	0.37749	8.92863	25247.90626	0.85175	3.01211E-4	1425.19281	47750.644	56.6324	9123.454
1280.0	0.86499	0.13501	7.23779	7.58075	-3.86747	24.07856	34.70916	1.4581	0.68582	48.50572	105.06394	17.62576	0.37599	8.99573	28050.72513	0.84268	2.70244E-4	1422.40723	47468.701	56.3886	9206.436
1275.0	0.87301	0.12699	7.24228	7.57613	-3.92603	23.99769	34.66084	1.45543	0.68708	50.33748	105.2915	18.30996	0.37459	9.06343	31064.50546	0.83369	2.4324E-4	1419.72158	47195.077	54.7248	9281.521
1270.0	0.88039	0.11961	7.24663	7.57167	-3.98261	23.9222	34.61069	1.45283	0.68831	52.09895	105.52754	18.96873	0.37328	9.13212	34310.28775	0.82475	2.19518E-4	1417.13036	46928.854	53.2446	9349.628
1265.0	0.88719	0.11281	7.25085	7.56734	-4.03758	23.85102	34.55892	1.45029	0.68952	53.78813	105.7709	19.60122	0.37206	9.20145	37803.40021	0.81588	1.98589E-4	1414.62994	46669.242	51.9224	9411.541
1260.0	0.89348	0.10652	7.25495	7.56316	-4.09052	23.78546	34.50578	1.44781	0.6907	55.4149	106.02108	20.21099	0.37091	9.27224	41570.73016	0.80702	1.80005E-4	1412.21118	46415.565	50.7354	9467.937
1255.0	0.89931	0.10069	7.25894	7.5591	-4.1421	23.72357	34.45146	1.44536	0.69187	56.978	106.27679	20.79751	0.36983	9.3437	45630.15036	0.79824	1.63456E-4	1409.87366	46167.236	49.6658	9519.398
1250.0	0.90472	0.0952774	7.26286	7.55511	-4.1927	23.6642	34.39589	1.44296	0.69302	58.48709	106.53709	21.36433	0.3688	9.41583	50012.47402	0.78953	1.48645E-4	1407.61482	45923.749	48.6974	9566.43
1245.0	0.90975	0.0902457	7.26667	7.55124	-4.24174	23.60916	34.33945	1.44059	0.69416	59.94073	106.80194	21.91081	0.36783	9.48955	54742.49844	0.78083	1.35356E-4	1405.42632	45684.663	47.8172	9609.469
1240.0	0.91444	0.0855577	7.27042	7.54744	-4.28985	23.55656	34.28208	1.43824	0.69529	61.34479	107.07039	22.43913	0.36692	9.56401	59852.2643	0.7722	1.23392E-4	1403.30857	45449.583	47.016	9648.917
1235.0	0.91882	0.081184	7.2741	7.54371	-4.33717	23.50603	34.22391	1.43593	0.69641	62.70323	107.34188	22.9507	0.36604	9.63924	65375.04453	0.76364	1.12595E-4	1401.25892	45218.183	46.28	9685.102
1230.0	0.9229	0.0770982	7.27772	7.54006	-4.38344	23.45835	34.16507	1.43363	0.69753	64.01734	107.61621	23.44597	0.36521	9.71605	71347.34996	0.75509	1.02828E-4	1399.27199	44990.158	45.605	9718.327
1225.0	0.92672	0.0732789	7.28128	7.53648	-4.42882	23.41306	34.10562	1.43135	0.69864	65.28987	107.8931	23.92591	0.36442	9.79373	77808.35347	0.74661	9.39757E-5	1397.34584	44765.255	44.9806	9748.843
1220.0	0.9303	0.0697037	7.28478	7.53296	-4.47357	23.36941	34.04563	1.42909	0.69975	66.52428	108.17185	24.39181	0.36366	9.8726	84801.57864	0.73817	8.59382E-5	1395.47966	44543.248	44.4014	9776.871
1215.08	0.93436	0.0656412	7.28849	7.52932	-4.51966	23.31952	33.98525	1.42692	0.70081	67.94579	108.44431	24.92826	0.36283	9.95112	92552.00245	0.72994	7.84823E-5	1393.69987	44318.832	 	9810.916
1215.0	0.93454	0.0654554	7.28857	7.52925	-4.52061	23.3181	33.98439	1.42687	0.70083	67.99752	108.44923	24.94788	0.36279	9.95371	92734.55342	0.72971	7.83235E-5	1393.64809	44313.246	46.0004	9813.302
1210.0	0.9446	0.0554048	7.29322	7.52429	-4.58352	23.21572	33.9299	1.42436	0.70207	70.99794	108.74097	26.08624	0.36083	10.08491	103972.6288	0.71779	6.9623E-5	1390.87495	43992.177	64.2138	9941.205
1205.0	0.95253	0.0474671	7.29748	7.51974	-4.64121	23.1292	33.87144	1.42201	0.70323	73.68673	109.03385	27.10583	0.35924	10.20691	115538.152	0.70682	6.24424E-5	1388.5607	43701.065	58.2224	10039.555
1200.0	0.95894	0.0410615	7.30146	7.51547	-4.69529	23.05359	33.8095	1.4198	0.70433	76.23293	109.32793	28.06977	0.35792	10.31874	127592.9857	0.6968	5.63517E-5	1386.6328	43431.591	53.8948	10116.668
1197.88	0.96127	0.038727	7.30308	7.51373	-4.71739	23.02388	33.78236	1.4189	0.70477	77.28667	109.45252	28.46816	0.35742	10.36248	132867.3056	0.69286	5.4037E-5	1385.92093	43322.835	 	10144.169
1195.0	0.9669	0.0331027	7.306	7.51076	-4.7551	22.95877	33.72898	1.41836	0.70504	79.66668	109.59666	29.36687	0.3564	10.48181	141705.9475	0.68363	5.05672E-5	1386.16296	43133.475	59.6232	10222.821
1190.0	0.97412	0.0258771	7.31062	7.50607	-4.81456	22.86429	33.64809	1.41692	0.70575	83.46285	109.8642	30.79727	0.35504	10.69263	156923.5246	0.66787	4.5508E-5	1386.59418	42842.588	58.1774	10322.142
1185.0	0.97923	0.0207677	7.31486	7.50178	-4.86892	22.78563	33.57257	1.41526	0.70659	86.62337	110.14545	31.98791	0.354	10.90837	172420.1333	0.65242	4.12763E-5	1387.04355	42583.14	51.8896	10390.419
1180.0	0.98302	0.0169823	7.31885	7.49775	-4.91998	22.71707	33.49918	1.41349	0.70747	89.1628	110.43474	32.94575	0.35318	11.12873	188565.3706	0.63731	3.76128E-5	1387.5117	42343.488	47.9304	10439.293
1175.0	0.98592	0.0140763	7.32268	7.49391	-4.96877	22.65539	33.42752	1.41165	0.70839	91.20734	110.7288	33.71835	0.35249	11.35353	205626.1742	0.62254	3.43733E-5	1387.99901	42117.076	45.2824	10475.318
1170.0	0.98822	0.0117808	7.32639	7.49019	-5.01588	22.59871	33.35715	1.40974	0.70935	92.88707	111.02572	34.35437	0.3519	11.58303	223818.6737	0.6081	3.14704E-5	1388.50435	41899.951	43.425	10502.443
1165.0	0.99008	0.00992481	7.33	7.48658	-5.06172	22.54579	33.28767	1.40779	0.71033	94.30653	111.32436	34.89285	0.35137	11.81742	243337.013	0.59398	2.88458E-5	1389.02678	41689.601	42.07	10523.181
1160.0	0.9916	0.00839555	7.33354	7.48304	-5.10653	22.49579	33.21895	1.4058	0.71134	95.54092	111.6239	35.36191	0.3509	12.05597	264366.2563	0.5802	2.64589E-5	1389.56603	41484.355	41.0492	10539.195
1155.0	0.99288	0.00711525	7.33701	7.47957	-5.15054	22.44804	33.15077	1.40378	0.71236	96.64541	111.92381	35.78217	0.35047	12.29846	287094.504	0.56677	2.42793E-5	1390.12221	41283.067	40.2576	10551.638
1150.0	0.99397	0.00602691	7.34044	7.47616	-5.19384	22.40226	33.08304	1.40173	0.71341	97.65835	112.22374	36.16797	0.35007	12.54652	311716.3101	0.55362	2.22832E-5	1390.69192	41084.92	39.6294	10561.321
1145.0	0.99491	0.00509215	7.34382	7.47279	-5.23655	22.35806	33.01607	1.39963	0.71447	98.60783	112.52342	36.52985	0.34969	12.79887	338438.2888	0.5408	2.04517E-5	1391.27617	40889.321	39.1198	10568.834
1140.0	0.99572	0.00428092	7.34716	7.46946	-5.27874	22.31523	32.94904	1.39754	0.71554	99.51365	112.82264	36.87521	0.34933	13.05552	367482.7014	0.5283	1.87689E-5	1391.87384	40695.829	38.6984	10574.617
1135.0	0.99643	0.00356934	7.35047	7.46617	-5.32045	22.27362	32.88233	1.39542	0.71663	100.51885	113.13682	37.25716	0.34899	13.31782	399092.0047	0.51606	1.72212E-5	1392.48244	40504.108	38.3442	10579.004
1130.0	0.99706	0.00294082	7.35375	7.46292	-5.36177	22.233	32.80107	1.39391	0.71741	101.33325	113.43508	37.56819	0.34866	13.58469	433530.1337	0.50413	1.57969E-5	1393.10364	40313.9	38.0416	10582.251
1125.0	0.99762	0.00238187	7.357	7.45969	-5.40272	22.19326	32.73565	1.39172	0.71854	102.13683	113.73251	37.87507	0.34834	13.85682	471088.3076	0.49247	1.44857E-5	1393.73558	40125.003	37.7794	10584.559
1120.0	0.99812	0.00188106	7.36023	7.45649	-5.4433	22.15445	32.67077	1.38949	0.71969	102.92063	114.02904	38.17448	0.34803	14.13443	512081.2455	0.48107	1.32784E-5	1394.37676	39937.255	37.5496	10586.087
1115.0	0.99857	0.00143011	7.36343	7.45331	-5.48359	22.11631	32.60632	1.38724	0.72085	103.67718	114.32465	38.46369	0.34773	14.41771	556865.4237	0.46992	1.21667E-5	1395.02664	39750.528	37.3454	10586.962
1110.0	0.99898	0.00102174	7.36662	7.45016	-5.52358	22.07884	32.54228	1.38497	0.72204	104.39726	114.61927	38.73931	0.34743	14.70596	605828.5987	0.45905	1.11431E-5	1395.68709	39564.715	37.1626	10587.288
1105.0	0.99935	6.50758E-4	7.36978	7.44702	-5.56329	22.04201	32.4785	1.38267	0.72324	105.07561	114.91288	38.99939	0.34714	15.00019	659399.9093	0.44842	1.02008E-5	1396.35464	39379.732	36.9966	10587.149
1100.0	0.99969	3.11252E-4	7.37292	7.44391	-5.60274	22.00575	32.41483	1.38036	0.72445	105.71319	115.20545	39.24428	0.34686	15.30051	718057.148	0.43802	9.33352E-6	1397.02951	39195.505	36.8454	10586.616
1095.0	1.0	0.0	7.37605	7.44082	-5.64195	21.96998	32.35104	1.37804	0.72567	106.31597	115.49697	39.47624	0.34658	 	782331.6953	 	8.53551E-6	 	39011.977	36.7056	10585.745
1090.0	1.0	0.0	7.37868	7.43817	-5.67558	21.95371	32.28378	1.37587	0.72681	106.73656	115.78688	39.63892	0.34636	 	851881.5292	 	7.81E-6	 	38823.55	37.6854	 
1085.0	1.0	0.0	7.3813	7.43552	-5.70916	21.93746	32.21648	1.37369	0.72797	107.15681	116.07558	39.80153	0.34614	 	928197.5568	 	7.14158E-6	 	38645.3	35.65	 
1080.0	1.0	0.0	7.38393	7.43288	-5.74269	21.92123	32.14916	1.37149	0.72913	107.57672	116.36309	39.96407	0.34592	 	1011993.231	 	6.52612E-6	 	38467.326	35.5948	 
1075.0	1.0	0.0	7.38655	7.43024	-5.77618	21.90502	32.08181	1.3693	0.7303	107.99628	116.6494	40.12653	0.3457	 	1104062.937	 	5.95979E-6	 	38289.617	35.5418	 
1070.0	1.0	0.0	7.38918	7.4276	-5.80961	21.88884	32.01443	1.36709	0.73148	108.4155	116.93453	40.28892	0.34548	 	1205291.814	 	5.439E-6	 	38112.165	35.4904	 
1065.0	1.0	0.0	7.3918	7.42497	-5.84299	21.87268	31.94702	1.36487	0.73267	108.83438	117.21847	40.45123	0.34525	 	1316666.836	 	4.96039E-6	 	37934.972	35.4386	 
1060.0	1.0	0.0	7.39441	7.42234	-5.87633	21.85654	31.87957	1.36265	0.73386	109.25292	117.50122	40.61347	0.34503	 	1439289.343	 	4.52082E-6	 	37758.041	35.3862	 
1055.0	1.0	0.0	7.39703	7.41971	-5.90962	21.84042	31.8121	1.36042	0.73507	109.6711	117.78281	40.77564	0.34481	 	1574389.204	 	4.11739E-6	 	37581.371	35.334	 
1050.0	1.0	0.0	7.39964	7.41709	-5.94285	21.82433	31.7446	1.35818	0.73628	110.08895	118.06322	40.93773	0.34459	 	1723340.853	 	3.74735E-6	 	37404.966	35.281	 
1045.0	1.0	0.0	7.40225	7.41448	-5.97604	21.80826	31.67707	1.35593	0.7375	110.50645	118.34246	41.09974	0.34437	 	1887681.448	 	3.40818E-6	 	37228.825	35.2282	 
1040.0	1.0	0.0	7.40486	7.41186	-6.00918	21.79221	31.60951	1.35367	0.73873	110.9236	118.62054	41.26168	0.34415	 	2069131.458	 	3.09751E-6	 	37052.948	35.1754	 
1035.0	1.0	0.0	7.40747	7.40925	-6.04228	21.77618	31.54192	1.35141	0.73997	111.3404	118.89746	41.42354	0.34393	 	2269618.021	 	2.81314E-6	 	36877.335	35.1226	 
1030.0	1.0	0.0	7.41008	7.40665	-6.07532	21.76018	31.4743	1.34914	0.74121	111.75686	119.17323	41.58533	0.34371	 	2491301.463	 	2.55302E-6	 	36701.984	35.0702	 
1025.0	1.0	0.0	7.41268	7.40404	-6.10831	21.7442	31.40665	1.34686	0.74247	112.17297	119.44784	41.74704	0.34348	 	2736605.445	 	2.31526E-6	 	36526.896	35.0176	 
1020.0	1.0	0.0	7.41529	7.40145	-6.14126	21.72824	31.33897	1.34457	0.74373	112.58873	119.72131	41.90868	0.34326	 	3008251.238	 	2.09808E-6	 	36352.07	34.9652	 
1015.0	1.0	0.0	7.41789	7.39885	-6.17416	21.71231	31.27126	1.34227	0.74501	113.00413	119.99364	42.07023	0.34304	 	3309296.757	 	1.89984E-6	 	36177.506	34.9128	 
1010.0	1.0	0.0	7.42048	7.39626	-6.20701	21.69639	31.20352	1.33996	0.74629	113.41919	120.26483	42.23171	0.34282	 	3643181.025	 	1.71903E-6	 	36003.202	34.8608	 
1005.0	1.0	0.0	7.42308	7.39367	-6.23982	21.6805	31.13575	1.33764	0.74758	113.8339	120.53488	42.39311	0.3426	 	4013774.881	 	1.55423E-6	 	35829.159	34.8086	 
1000.0	1.0	0.0	7.42567	7.39109	-6.27257	21.66463	31.06795	1.33532	0.74889	114.24825	120.80381	42.55444	0.34238	 	4425438.867	 	1.40414E-6	 	35655.376	34.7566	 
995.0	1.0	0.0	7.42827	7.38851	-6.30528	21.64879	31.00012	1.33298	0.7502	114.66225	121.07161	42.71568	0.34216	 	4883089.349	 	1.26754E-6	 	35481.852	34.7048	 
