T (C)	Fraction solid (wt)-TOTAL	Fraction liquid (wt)-LIQUID	Density (g/(cm)^3)-TOTAL	Molar volume (cm^3)-TOTAL	Volume change (%)-  	Average expansion coeff. (10e-6 1/K)-  	Thermal conductivity (W/(m*K))-TOTAL	Electrical resistivity (10e-6 Ohm*m)-TOTAL	Electrical conductivity (10e6 1/(Ohm*m))-TOTAL	Young's modulus (GPa)-TOTAL	Bulk modulus (GPa)-TOTAL	Shear modulus(GPa)-TOTAL	Poisson's ratio-TOTAL	Liquid viscosity (mPa s)-  	Total viscosity (mPa s)-  	Liquid diffusivity (10e-9 (m^2)/s)-  	Total diffusivity (10e-9 (m^2)/s)-  	Surface Tension (mN/m)-  	Enthalpy (J/mole)-TOTAL	Specific heat (J/(mole K))-TOTAL	Latent heat (J/mole)-TOTAL
1500.0	0.0	1.0	6.95442	7.85034	0.0	29.2613	31.39621	1.84029	0.54339	0.0	106.03886	0.0	0.49975	6.60663	6.60663	1.30994	1.30994	1763.65426	64584.468	 	0.0
1495.0	0.0	1.0	6.95832	7.84594	-0.0561636	29.21698	31.32016	1.83956	0.54361	0.0	106.22301	0.0	0.49975	6.66419	6.66419	1.29497	1.29497	1765.47174	64363.174	44.2588	0.0
1490.0	0.0	1.0	6.96223	7.84154	-0.11217	29.17276	31.24411	1.83882	0.54383	0.0	106.40716	0.0	0.49975	6.72258	6.72258	1.28009	1.28009	1767.28634	64142.38	44.1588	0.0
1485.0	0.0	1.0	6.96612	7.83715	-0.16802	29.12864	31.16807	1.83808	0.54405	0.0	106.59131	0.0	0.49975	6.78182	6.78182	1.26531	1.26531	1769.09802	63922.084	44.0592	0.0
1480.0	0.0	1.0	6.97001	7.83278	-0.22372	29.08462	31.09202	1.83733	0.54427	0.0	106.77546	0.0	0.49975	6.84192	6.84192	1.25063	1.25063	1770.90676	63702.281	43.9606	0.0
1475.0	0.0	1.0	6.97389	7.82842	-0.27926	29.04071	31.01597	1.83658	0.54449	0.0	106.9596	0.0	0.49975	6.90291	6.90291	1.23604	1.23604	1772.71251	63482.97	43.8622	0.0
1470.0	0.0	1.0	6.97777	7.82407	-0.33464	28.99689	30.93993	1.83583	0.54471	0.0	107.14375	0.0	0.49975	6.96479	6.96479	1.22156	1.22156	1774.51525	63264.145	43.765	0.0
1465.0	0.0	1.0	6.98164	7.81974	-0.38987	28.95318	30.86388	1.83508	0.54494	0.0	107.3279	0.0	0.49975	7.02759	7.02759	1.20717	1.20717	1776.31494	63045.805	43.668	0.0
1460.0	0.0	1.0	6.9855	7.81541	-0.44494	28.90957	30.78784	1.83432	0.54516	0.0	107.51205	0.0	0.49975	7.09132	7.09132	1.19288	1.19288	1778.11154	62827.946	43.5718	0.0
1455.0	0.0	1.0	6.98935	7.8111	-0.49986	28.86607	30.71179	1.83356	0.54539	0.0	107.6962	0.0	0.49975	7.156	7.156	1.17868	1.17868	1779.90503	62610.566	43.476	0.0
1450.0	0.0	1.0	6.9932	7.80681	-0.55462	28.82268	30.63574	1.83279	0.54562	0.0	107.88035	0.0	0.49975	7.22166	7.22166	1.16459	1.16459	1781.69535	62393.689	43.3754	0.0
1445.0	0.0	1.0	6.99704	7.80252	-0.60922	28.77939	30.5597	1.83202	0.54585	0.0	108.06449	0.0	0.49975	7.2883	7.2883	1.15059	1.15059	1783.48247	62177.362	43.2654	0.0
1440.0	0.0	1.0	7.00088	7.79824	-0.66367	28.73622	30.48365	1.83124	0.54608	0.0	108.24864	0.0	0.49975	7.35595	7.35595	1.13669	1.13669	1785.26637	61961.578	43.1568	0.0
1435.0	0.0	1.0	7.00471	7.79398	-0.71796	28.69315	30.4076	1.83047	0.54631	0.0	108.43279	0.0	0.49975	7.42464	7.42464	1.12289	1.12289	1787.04699	61746.331	43.0494	0.0
1430.0	0.0	1.0	7.00853	7.78973	-0.77209	28.6502	30.33156	1.82968	0.54654	0.0	108.61694	0.0	0.49975	7.49437	7.49437	1.10919	1.10919	1788.8243	61531.618	42.9426	0.0
1428.2	0.0	1.0	7.00991	7.7882	-0.7916	28.63471	30.30411	1.8294	0.54663	0.0	108.68341	0.0	0.49975	7.5198	7.5198	1.10426	1.10426	1789.46502	61454.24	42.873	0.0060
1425.0	0.12891	0.87109	7.03141	7.76427	-1.09644	27.88027	30.50628	1.81386	0.55131	0.0202931	107.49872	0.00684446	0.48245	7.54448	11.38932	1.09859	0.72772	1787.76656	59868.008	496.445	1449.427
1420.0	0.28971	0.71029	7.05879	7.73433	-1.47781	26.95093	30.7572	1.79377	0.55749	0.52908	106.07806	0.18112	0.4606	7.58306	77.44556	1.08978	0.10671	1785.3353	57859.861	401.629	3243.92
1415.0	0.41115	0.58885	7.08028	7.71108	-1.77399	26.24564	30.94014	1.7779	0.56246	2.18493	105.07897	0.75663	0.44385	7.6217	297.66609	1.08105	0.0276801	1783.13004	56304.617	311.049	4586.033
1411.2	0.48178	0.51822	7.09316	7.69714	-1.95158	25.83527	31.03922	1.76823	0.56554	4.16607	104.55288	1.4526	0.434	7.65125	574.16993	1.07445	0.0143179	1781.57769	55368.271	 	5360.696
1410.0	0.50357	0.49643	7.0972	7.69279	-2.00696	25.7071	31.08217	1.76453	0.56672	4.77908	104.23786	1.66997	0.43089	7.6579	687.90019	1.07275	0.0119422	1780.99898	55092.582	242.407	5585.457
1405.0	0.58218	0.41782	7.11213	7.67677	-2.2111	25.24329	31.23007	1.75096	0.57112	7.66307	103.19759	2.69905	0.41958	7.68558	1266.94394	1.06571	0.00646487	1778.80163	54071.517	204.213	6394.427
1400.0	0.64263	0.35737	7.12422	7.66387	-2.37531	24.88546	31.32958	1.7402	0.57465	10.75601	102.51435	3.81202	0.4108	7.71397	1963.17609	1.05863	0.0041597	1776.8191	53242.608	165.782	7011.753
1395.0	0.69006	0.30994	7.13428	7.6532	-2.51125	24.60272	31.39417	1.73143	0.57756	13.89276	102.07915	4.94815	0.40383	7.7429	2740.23584	1.05152	0.00297121	1775.02591	52551.08	138.306	7492.206
1390.0	0.72794	0.27206	7.14285	7.64414	-2.62664	24.37457	31.43289	1.72411	0.58001	16.98223	101.82012	6.07286	0.39821	7.77226	3573.9422	1.04441	0.00227128	1773.40005	51960.182	118.18	7872.534
1385.0	0.75868	0.24132	7.15028	7.63628	-2.72679	24.18692	31.45205	1.71788	0.58211	19.9804	101.68937	7.16869	0.39359	7.80207	4449.76367	1.03729	0.00181875	1771.92372	51444.62	103.112	8178.03
1380.0	0.78439	0.21561	7.157	7.62924	-2.81649	24.02695	31.45724	1.71242	0.58397	22.93015	101.65035	8.25017	0.38968	7.83234	5372.67183	1.03017	0.00150179	1770.58084	50982.23	92.478	8430.852
1375.0	0.80618	0.19382	7.16315	7.62286	-2.89773	23.88936	31.45163	1.70754	0.58564	25.8366	101.68111	9.31842	0.38632	7.86338	6342.62089	1.023	0.00126828	1769.35477	50561.289	84.1882	8642.721
1370.0	0.82489	0.17511	7.16887	7.61695	-2.97302	23.76743	31.43728	1.70314	0.58715	28.70515	101.76529	10.37488	0.3834	7.89488	7360.81981	1.01582	0.00108953	1768.23839	50173.234	77.611	8822.197
1365.0	0.84111	0.15889	7.17426	7.61144	-3.04318	23.65898	31.41602	1.69911	0.58855	31.54374	101.89177	11.42204	0.38083	7.9268	8430.80231	1.00865	9.48356E-4	1767.2185	49811.684	72.31	8975.657
1360.0	0.8553	0.1447	7.17939	7.60626	-3.10927	23.5612	31.38909	1.69537	0.58984	34.36013	102.05158	12.46245	0.37855	7.9595	9557.20514	1.00144	8.3403E-4	1766.2864	49471.802	67.9764	9107.936
1355.0	0.86782	0.13218	7.1843	7.60134	-3.17185	23.47261	31.35758	1.69188	0.59106	37.16087	102.23831	13.4983	0.3765	7.99295	10745.78797	0.9942	7.39508E-4	1765.4323	49149.862	64.388	9222.756
1350.0	0.87895	0.12105	7.18904	7.59663	-3.23192	23.39051	31.3221	1.68859	0.59221	39.94464	102.44667	14.52895	0.37466	8.02685	12001.26975	0.98696	6.60113E-4	1764.65349	48842.952	61.382	9323.026
1345.0	0.8889	0.1111	7.19364	7.59211	-3.28949	23.31491	31.28336	1.68548	0.5933	42.71129	102.67309	15.55421	0.37298	8.06151	13330.1815	0.97969	5.92474E-4	1763.93936	48548.872	58.816	9410.944
1340.0	0.89785	0.10215	7.19813	7.58771	-3.34548	23.24326	31.24179	1.68251	0.59435	45.46458	102.91382	16.57543	0.37145	8.09658	14740.45121	0.97243	5.34135E-4	1763.29015	48265.642	56.646	9488.487
1335.92	0.90434	0.095661	7.20165	7.58426	-3.38941	23.18951	31.20566	1.68019	0.59517	47.63839	103.12045	17.38234	0.37031	8.1258	15944.29443	0.96648	4.92556E-4	1762.79924	48042.992	 	9543.478
1335.0	0.90609	0.0939087	7.20263	7.58332	-3.40144	23.17114	31.19849	1.67962	0.59537	48.25014	103.16175	17.60942	0.37001	8.13354	16247.88578	0.96501	4.83077E-4	1762.90429	47989.139	55.3006	9559.774
1330.0	0.9152	0.0848034	7.20787	7.57826	-3.46592	23.07389	31.1576	1.67659	0.59645	51.63224	103.39628	18.86544	0.36843	8.17629	17971.74518	0.95698	4.35382E-4	1763.51033	47701.103	57.6072	9643.064
1325.0	0.92332	0.0766811	7.21291	7.57344	-3.52725	22.98504	31.11382	1.67372	0.59747	54.97375	103.64606	20.10745	0.367	8.21933	19796.81959	0.949	3.94011E-4	1764.1463	47424.568	55.307	9715.318
1320.0	0.93061	0.0693914	7.21776	7.56886	-3.58569	22.90386	31.06745	1.67097	0.59845	58.24508	103.9085	21.32449	0.36569	8.26304	21733.59444	0.94103	3.57777E-4	1764.80524	47157.788	53.356	9778.279
1315.0	0.93719	0.0628093	7.22248	7.56445	-3.64176	22.82899	31.01912	1.66832	0.5994	61.42062	104.18131	22.50708	0.36447	8.30718	23793.3503	0.93309	3.25779E-4	1765.48652	46899.361	51.6854	9833.348
1310.0	0.94316	0.0568372	7.22706	7.56021	-3.69576	22.75962	30.96901	1.66576	0.60033	64.47902	104.46267	23.64729	0.36335	8.35203	25988.09918	0.92516	2.97327E-4	1766.18605	46648.147	50.2428	9881.662
1305.0	0.94861	0.0513935	7.23154	7.55611	-3.74801	22.69485	30.91731	1.66328	0.60122	67.40378	104.75108	24.73894	0.3623	8.3977	28330.66753	0.91722	2.71881E-4	1766.90337	46403.209	48.9876	9924.155
1300.0	0.95359	0.04641	7.23593	7.55212	-3.79881	22.63382	30.86423	1.66086	0.6021	70.18522	105.04529	25.77839	0.36132	8.44386	30834.73904	0.90932	2.4901E-4	1767.63834	46163.768	47.8882	9961.601
1295.0	0.95817	0.0418295	7.24024	7.54825	-3.8482	22.57653	30.80994	1.6585	0.60296	72.81666	105.34456	26.76304	0.3604	8.49104	33515.19891	0.90139	2.28367E-4	1768.38365	45929.173	46.919	9994.652
1290.0	0.9624	0.037603	7.24448	7.54446	-3.8965	22.52201	30.75455	1.65619	0.6038	75.29834	105.64785	27.69291	0.35952	8.5391	36387.94035	0.89346	2.09667E-4	1769.14387	45698.873	46.06	10023.855
1285.0	0.96631	0.0336907	7.24867	7.54074	-3.94382	22.46997	30.69818	1.65392	0.60462	77.63291	105.95455	28.56889	0.3587	8.58782	39470.17405	0.88555	1.92676E-4	1769.91655	45472.398	45.295	10049.676
1280.0	0.96994	0.0300557	7.25281	7.5371	-3.99018	22.42042	30.64097	1.65169	0.60544	79.82664	106.26424	29.39319	0.35791	8.63771	42780.61091	0.87761	1.77196E-4	1770.69464	45249.347	44.6102	10072.516
1275.0	0.97333	0.0266684	7.25691	7.53352	-4.03585	22.37254	30.58295	1.6495	0.60625	81.88841	106.57624	30.16906	0.35716	8.6883	46339.71257	0.86969	1.6306E-4	1771.48657	45029.369	43.9956	10092.72
1270.0	0.9765	0.023501	7.26098	7.52999	-4.08082	22.3264	30.52422	1.64733	0.60704	83.82812	106.8902	30.90006	0.35644	8.74013	50169.69666	0.86174	1.50125E-4	1772.28562	44812.165	43.4408	10110.587
1265.0	0.97947	0.0205301	7.26502	7.5265	-4.12518	22.28175	30.46487	1.64519	0.60783	85.65637	107.20584	31.59007	0.35575	8.79281	54294.79281	0.8538	1.3827E-4	1773.09055	44597.468	42.9394	10126.381
1260.0	0.98227	0.017733	7.26903	7.52306	-4.169	22.23837	30.40493	1.64308	0.60861	87.38486	107.5228	32.24339	0.35508	8.84684	58741.82455	0.84583	1.27387E-4	1773.90056	44385.05	42.4836	10140.328
1255.0	0.98491	0.0150913	7.27303	7.51966	-4.21236	22.19604	30.34447	1.64098	0.60939	89.02507	107.84076	32.86422	0.35444	8.90223	63539.83102	0.83783	1.17383E-4	1774.71522	44174.705	42.069	10152.631
1250.0	0.98741	0.0125875	7.27701	7.51629	-4.25532	22.15461	30.28353	1.63891	0.61016	90.58664	108.15956	33.45611	0.35381	8.95868	68720.12287	0.82982	1.0818E-4	1775.53444	43966.254	41.6902	10163.465
1247.82	0.98905	0.0109531	7.27912	7.51466	-4.2761	22.13015	30.25758	1.63796	0.61051	91.51426	108.29799	33.8078	0.35345	8.98401	71282.85728	0.8263	1.04141E-4	1775.89058	43871.47	 	10172.147
1245.0	0.99107	0.00893253	7.28134	7.51234	-4.30563	22.09014	30.22387	1.63675	0.61097	92.70594	108.49359	34.26103	0.35294	9.11378	74723.79101	0.81302	9.91614E-5	1775.21485	43734.329	46.385	10198.196
1240.0	0.99377	0.00623468	7.28508	7.50842	-4.3555	22.02654	30.16328	1.63464	0.61176	94.39666	108.83526	34.90503	0.35219	9.34614	80968.54196	0.7902	9.12121E-5	1774.18001	43504.909	45.884	10230.854
1235.0	0.99571	0.00428664	7.28865	7.50468	-4.40313	21.96933	30.1019	1.63256	0.61254	95.73937	109.17183	35.41726	0.35159	9.57991	87499.28271	0.76837	8.41253E-5	1773.29022	43287.351	43.5116	10252.08
1230.0	0.99718	0.00281655	7.29211	7.50107	-4.44922	21.91649	30.03993	1.6305	0.61331	96.86556	109.50473	35.8474	0.35108	9.81579	94411.61293	0.74742	7.77076E-5	1772.51368	43077.465	41.9772	10266.063
1225.0	0.99833	0.00167035	7.29549	7.49754	-4.49417	21.86678	29.97743	1.62847	0.61407	97.84705	109.83479	36.22263	0.35063	10.05327	101780.0638	0.72734	7.18421E-5	1771.84018	42872.854	40.9222	10275.197
1220.0	0.99925	7.51746E-4	7.2988	7.49408	-4.53823	21.81947	29.91473	1.62643	0.61484	98.72752	110.16251	36.55953	0.35023	10.2924	109671.1826	0.70807	6.64504E-5	1771.25484	42672.051	40.1606	10280.946
1215.0	1.0	0.0	7.30207	7.49068	-4.58155	21.77408	29.85196	1.62439	0.61561	99.53393	110.48824	36.86831	0.34986	 	118148.1506	 	6.14761E-5	 	42474.109	39.5884	10284.257
1210.0	1.0	0.0	7.30468	7.488	-4.6156	21.75776	29.78677	1.62248	0.61634	99.96634	110.80769	37.03445	0.34964	 	126943.0329	 	5.70247E-5	 	42249.408	44.9402	 
1205.0	1.0	0.0	7.30728	7.48533	-4.64961	21.74146	29.72158	1.62056	0.61707	100.39859	111.12605	37.20058	0.34942	 	136459.2847	 	5.28691E-5	 	42063.531	37.1754	 
1200.0	1.0	0.0	7.30988	7.48267	-4.68356	21.72519	29.65639	1.61863	0.61781	100.83068	111.44331	37.36671	0.3492	 	146761.3675	 	4.89916E-5	 	41877.92	37.1222	 
1195.0	1.0	0.0	7.31248	7.48001	-4.71747	21.70892	29.5912	1.61669	0.61855	101.2626	111.75948	37.53282	0.34899	 	157919.9647	 	4.53754E-5	 	41692.579	37.0682	 
1190.0	1.0	0.0	7.31508	7.47735	-4.75132	21.69268	29.526	1.61474	0.6193	101.69435	112.07455	37.69893	0.34877	 	170012.6266	 	4.20044E-5	 	41507.513	37.0132	 
1185.0	1.0	0.0	7.31768	7.4747	-4.78513	21.67646	29.46081	1.61278	0.62005	102.12593	112.38852	37.86503	0.34855	 	183124.4852	 	3.88636E-5	 	41322.723	36.958	 
1180.0	1.0	0.0	7.32028	7.47204	-4.81889	21.66025	29.39562	1.61081	0.6208	102.55734	112.7014	38.03111	0.34833	 	197349.0496	 	3.59387E-5	 	41138.211	36.9024	 
1175.0	1.0	0.0	7.32287	7.4694	-4.8526	21.64407	29.33042	1.60884	0.62157	102.98856	113.01318	38.19718	0.34812	 	212789.0902	 	3.32163E-5	 	40953.977	36.8468	 
1170.0	1.0	0.0	7.32546	7.46676	-4.88626	21.6279	29.26523	1.60686	0.62233	103.4196	113.32387	38.36324	0.3479	 	229557.6222	 	3.06836E-5	 	40770.018	36.7918	 
1165.0	1.0	0.0	7.32805	7.46412	-4.91987	21.61175	29.20003	1.60487	0.62311	103.85045	113.63347	38.52928	0.34768	 	247779.0004	 	2.83287E-5	 	40586.336	36.7364	 
1160.0	1.0	0.0	7.33064	7.46148	-4.95344	21.59562	29.13484	1.60286	0.62388	104.28111	113.94198	38.6953	0.34746	 	267590.1394	 	2.61402E-5	 	40402.929	36.6814	 
1155.0	1.0	0.0	7.33322	7.45885	-4.98695	21.57951	29.06964	1.60085	0.62467	104.71157	114.24939	38.86131	0.34725	 	289141.8728	 	2.41074E-5	 	40219.796	36.6266	 
1150.0	1.0	0.0	7.33581	7.45622	-5.02042	21.56342	29.00445	1.59884	0.62546	105.14184	114.55572	39.0273	0.34703	 	312600.4705	 	2.22202E-5	 	40036.938	36.5716	 
1145.0	1.0	0.0	7.33839	7.4536	-5.05384	21.54734	28.93925	1.59681	0.62625	105.57191	114.86097	39.19326	0.34681	 	338149.3311	 	2.04692E-5	 	39854.354	36.5168	 
1140.0	1.0	0.0	7.34097	7.45098	-5.08721	21.53129	28.87405	1.59477	0.62705	106.00178	115.16512	39.3592	0.34659	 	365990.8728	 	1.88454E-5	 	39672.042	36.4624	 
1135.0	1.0	0.0	7.34355	7.44836	-5.12053	21.51525	28.80885	1.59272	0.62785	106.43143	115.46819	39.52512	0.34638	 	396348.6467	 	1.73404E-5	 	39490.003	36.4078	 
1130.0	1.0	0.0	7.34613	7.44575	-5.15381	21.49923	28.74365	1.59067	0.62867	106.86088	115.77018	39.69102	0.34616	 	429469.7002	 	1.59462E-5	 	39308.236	36.3534	 
1125.0	1.0	0.0	7.3487	7.44314	-5.18703	21.48323	28.67845	1.5886	0.62948	107.29012	116.07108	39.85689	0.34594	 	465627.2223	 	1.46555E-5	 	39126.74	36.2992	 
1120.0	1.0	0.0	7.35127	7.44054	-5.22021	21.46725	28.61325	1.58653	0.63031	107.71914	116.3709	40.02273	0.34572	 	505123.5061	 	1.34613E-5	 	38945.515	36.245	 
1115.0	1.0	0.0	7.35384	7.43794	-5.25334	21.45129	28.54805	1.58445	0.63114	108.14793	116.66964	40.18855	0.34551	 	548293.2687	 	1.23569E-5	 	38764.56	36.191	 
1110.0	1.0	0.0	7.35641	7.43534	-5.28642	21.43535	28.48285	1.58235	0.63197	108.57651	116.9673	40.35433	0.34529	 	595507.3749	 	1.13362E-5	 	38583.874	36.1372	 
1105.0	1.0	0.0	7.35898	7.43275	-5.31946	21.41942	28.41765	1.58025	0.63281	109.00486	117.26388	40.52009	0.34507	 	647177.0169	 	1.03935E-5	 	38403.457	36.0834	 
1100.0	1.0	0.0	7.36154	7.43016	-5.35245	21.40352	28.35245	1.57814	0.63366	109.43298	117.55938	40.68581	0.34485	 	703758.4074	 	9.52316E-6	 	38223.308	36.0298	 
1095.0	1.0	0.0	7.36411	7.42757	-5.38539	21.38763	28.28725	1.57602	0.63451	109.86087	117.85381	40.8515	0.34464	 	765758.0555	 	8.72025E-6	 	38043.427	35.9762	 
1090.0	1.0	0.0	7.36667	7.42499	-5.41828	21.37176	28.22204	1.57388	0.63537	110.28852	118.14716	41.01716	0.34442	 	833738.701	 	7.97995E-6	 	37863.812	35.923	 
1085.0	1.0	0.0	7.36923	7.42241	-5.45113	21.35591	28.15684	1.57174	0.63624	110.71593	118.43944	41.18278	0.3442	 	908325.993	 	7.29781E-6	 	37684.464	35.8696	 
1080.0	1.0	0.0	7.37178	7.41984	-5.48392	21.34008	28.09164	1.56959	0.63711	111.14311	118.73064	41.34837	0.34398	 	990216.0147	 	6.66964E-6	 	37505.382	35.8164	 
1075.0	1.0	0.0	7.37434	7.41727	-5.51667	21.32427	28.02643	1.56743	0.63799	111.57004	119.02078	41.51392	0.34377	 	1080183.765	 	6.09154E-6	 	37326.564	35.7636	 
1070.0	1.0	0.0	7.37689	7.4147	-5.54938	21.30847	27.96123	1.56526	0.63887	111.99672	119.30984	41.67943	0.34355	 	1179092.728	 	5.55985E-6	 	37148.011	35.7106	 
1065.0	1.0	0.0	7.37944	7.41214	-5.58203	21.2927	27.89602	1.56308	0.63976	112.42315	119.59784	41.8449	0.34333	 	1287905.676	 	5.07116E-6	 	36969.722	35.6578	 
1060.0	1.0	0.0	7.38199	7.40958	-5.61464	21.27694	27.83081	1.56088	0.64066	112.84933	119.88477	42.01033	0.34311	 	1407696.88	 	4.62228E-6	 	36791.696	35.6052	 
1055.0	1.0	0.0	7.38454	7.40702	-5.6472	21.26121	27.7656	1.55868	0.64157	113.27525	120.17063	42.17571	0.3429	 	1539665.912	 	4.21024E-6	 	36613.932	35.5528	 
1050.0	1.0	0.0	7.38709	7.40447	-5.67972	21.24549	27.7004	1.55647	0.64248	113.70091	120.45543	42.34106	0.34268	 	1685153.273	 	3.83227E-6	 	36436.43	35.5004	 
1045.0	1.0	0.0	7.38963	7.40192	-5.71219	21.22979	27.63519	1.55425	0.6434	114.12631	120.73917	42.50636	0.34246	 	1845658.084	 	3.48578E-6	 	36259.189	35.4482	 
1040.0	1.0	0.0	7.39217	7.39937	-5.74461	21.2141	27.56998	1.55201	0.64432	114.55145	121.02184	42.67161	0.34224	 	2022858.151	 	3.16837E-6	 	36082.208	35.3962	 
1035.0	1.0	0.0	7.39471	7.39683	-5.77698	21.19844	27.50477	1.54977	0.64526	114.97632	121.30345	42.83682	0.34203	 	2218632.723	 	2.87779E-6	 	35905.487	35.3442	 
1030.0	1.0	0.0	7.39725	7.39429	-5.80931	21.1828	27.43956	1.54752	0.6462	115.40091	121.58401	43.00199	0.34181	 	2435088.328	 	2.61196E-6	 	35729.025	35.2924	 
1025.0	1.0	0.0	7.39979	7.39176	-5.84159	21.16717	27.37435	1.54525	0.64714	115.82524	121.8635	43.1671	0.34159	 	2674588.149	 	2.36894E-6	 	35552.822	35.2406	 
1020.0	1.0	0.0	7.40232	7.38923	-5.87383	21.15157	27.30913	1.54297	0.6481	116.24929	122.14194	43.33217	0.34137	 	2939785.418	 	2.14694E-6	 	35376.876	35.1892	 
1015.0	1.0	0.0	7.40485	7.3867	-5.90602	21.13598	27.24392	1.54069	0.64906	116.67305	122.41933	43.49718	0.34116	 	3233661.437	 	1.94428E-6	 	35201.187	35.1378	 
1010.0	1.0	0.0	7.40738	7.38418	-5.93816	21.12041	27.17871	1.53839	0.65003	117.09654	122.69566	43.66214	0.34094	 	3559568.908	 	1.75941E-6	 	35025.754	35.0866	 
1005.0	1.0	0.0	7.40991	7.38166	-5.97026	21.10486	27.1135	1.53608	0.65101	117.51974	122.97094	43.82705	0.34072	 	3921281.323	 	1.59089E-6	 	34850.576	35.0356	 
1000.0	1.0	0.0	7.41244	7.37914	-6.00231	21.08932	27.04828	1.53376	0.65199	117.94266	123.24516	43.99191	0.3405	 	4323049.358	 	1.43739E-6	 	34675.653	34.9846	 
995.0	1.0	0.0	7.41496	7.37663	-6.03431	21.07381	26.98307	1.53143	0.65298	118.36528	123.51834	44.15671	0.34029	 	4769665.284	 	1.29769E-6	 	34500.984	34.9338	 
990.0	1.0	0.0	7.41749	7.37412	-6.06627	21.05832	26.91785	1.52909	0.65398	118.78762	123.79047	44.32146	0.34007	 	5266536.619	 	1.17062E-6	 	34326.568	34.8832	 
985.0	1.0	0.0	7.42001	7.37162	-6.09818	21.04284	26.85263	1.52673	0.65499	119.20965	124.06156	44.48614	0.33985	 	5819770.429	 	1.05515E-6	 	34152.404	34.8328	 
980.0	1.0	0.0	7.42252	7.36911	-6.13005	21.02738	26.78742	1.52437	0.65601	119.63139	124.3316	44.65078	0.33963	 	6436269.89	 	9.50289E-7	 	33978.493	34.7822	 
975.0	1.0	0.0	7.42504	7.36662	-6.16187	21.01195	26.7222	1.52199	0.65703	120.05283	124.6006	44.81535	0.33942	 	7123845.017	 	8.55144E-7	 	33804.831	34.7324	 
970.0	1.0	0.0	7.42756	7.36412	-6.19365	20.99653	26.65698	1.5196	0.65807	120.47396	124.86855	44.97986	0.3392	 	7891339.743	 	7.68882E-7	 	33631.42	34.6822	 
