T (C)	Fraction solid (wt)-TOTAL	Fraction liquid (wt)-LIQUID	Density (g/(cm)^3)-TOTAL	Molar volume (cm^3)-TOTAL	Volume change (%)-  	Average expansion coeff. (10e-6 1/K)-  	Thermal conductivity (W/(m*K))-TOTAL	Electrical resistivity (10e-6 Ohm*m)-TOTAL	Electrical conductivity (10e6 1/(Ohm*m))-TOTAL	Young's modulus (GPa)-TOTAL	Bulk modulus (GPa)-TOTAL	Shear modulus(GPa)-TOTAL	Poisson's ratio-TOTAL	Liquid viscosity (mPa s)-  	Total viscosity (mPa s)-  	Liquid diffusivity (10e-9 (m^2)/s)-  	Total diffusivity (10e-9 (m^2)/s)-  	Surface Tension (mN/m)-  	Enthalpy (J/mole)-TOTAL	Specific heat (J/(mole K))-TOTAL	Latent heat (J/mole)-TOTAL
1500.0	0.0	1.0	6.94841	7.85396	0.0	29.0306	31.33808	1.8437	0.54239	0.0	106.16373	0.0	0.49779	6.6249	6.6249	1.30633	1.30633	1765.93266	64445.297	 	0.0
1495.0	0.0	1.0	6.9523	7.84956	-0.056013	28.98601	31.26305	1.84292	0.54262	0.0	106.34866	0.0	0.49779	6.68272	6.68272	1.29138	1.29138	1767.72195	64224.111	44.2372	0.0
1490.0	0.0	1.0	6.95619	7.84518	-0.11187	28.94152	31.18802	1.84213	0.54285	0.0	106.53358	0.0	0.49779	6.74137	6.74137	1.27652	1.27652	1769.50811	64003.422	44.1378	0.0
1485.0	0.0	1.0	6.96007	7.8408	-0.16757	28.89712	31.11299	1.84133	0.54309	0.0	106.7185	0.0	0.49779	6.80087	6.80087	1.26176	1.26176	1771.29111	63783.23	44.0384	0.0
1480.0	0.0	1.0	6.96394	7.83644	-0.22312	28.85283	31.03795	1.84053	0.54332	0.0	106.90343	0.0	0.49779	6.86124	6.86124	1.2471	1.2471	1773.07091	63563.528	43.9404	0.0
1475.0	0.0	1.0	6.96781	7.83209	-0.27851	28.80863	30.96292	1.83973	0.54356	0.0	107.08835	0.0	0.49779	6.9225	6.9225	1.23254	1.23254	1774.84747	63344.316	43.8424	0.0
1470.0	0.0	1.0	6.97167	7.82775	-0.33374	28.76453	30.88789	1.83893	0.5438	0.0	107.27327	0.0	0.49779	6.98466	6.98466	1.21808	1.21808	1776.62074	63125.589	43.7454	0.0
1465.0	0.0	1.0	6.97553	7.82342	-0.38882	28.72053	30.81286	1.83812	0.54404	0.0	107.4582	0.0	0.49779	7.04774	7.04774	1.20372	1.20372	1778.3907	62907.345	43.6488	0.0
1460.0	0.0	1.0	6.97938	7.81911	-0.44374	28.67664	30.73783	1.8373	0.54428	0.0	107.64312	0.0	0.49779	7.11177	7.11177	1.18945	1.18945	1780.1573	62689.58	43.553	0.0
1455.0	0.0	1.0	6.98322	7.81481	-0.49851	28.63284	30.6628	1.83649	0.54452	0.0	107.82804	0.0	0.49779	7.17674	7.17674	1.17528	1.17528	1781.9205	62472.291	43.4578	0.0
1450.0	0.0	1.0	6.98705	7.81052	-0.55312	28.58915	30.58776	1.83566	0.54476	0.0	108.01297	0.0	0.49779	7.2427	7.2427	1.16121	1.16121	1783.68025	62255.504	43.3574	0.0
1445.0	0.0	1.0	6.99088	7.80624	-0.60758	28.54557	30.51273	1.83484	0.54501	0.0	108.19789	0.0	0.49779	7.30965	7.30965	1.14723	1.14723	1785.43652	62039.267	43.2474	0.0
1440.0	0.0	1.0	6.9947	7.80198	-0.66188	28.50209	30.4377	1.83401	0.54525	0.0	108.38281	0.0	0.49779	7.37761	7.37761	1.13336	1.13336	1787.18927	61823.569	43.1396	0.0
1435.0	0.0	1.0	6.99852	7.79773	-0.71602	28.45872	30.36267	1.83317	0.5455	0.0	108.56774	0.0	0.49779	7.44661	7.44661	1.11958	1.11958	1788.93843	61608.408	43.0322	0.0
1430.0	0.0	1.0	7.00233	7.79349	-0.77001	28.41545	30.28764	1.83234	0.54575	0.0	108.75266	0.0	0.49779	7.51666	7.51666	1.1059	1.1059	1790.68398	61393.78	42.9256	0.0
1429.08	0.0	1.0	7.00303	7.79271	-0.77993	28.4075	30.27383	1.83218	0.5458	0.0	108.78669	0.0	0.49779	7.52967	7.52967	1.10339	1.10339	1791.00477	61354.363	42.8441	0.0
1425.0	0.19321	0.80679	7.03467	7.75769	-1.22578	27.29236	30.59529	1.80859	0.55292	0.10394	106.97667	0.0353086	0.47189	7.57	21.8626	1.09488	0.37911	1788.56081	58995.203	578.227	2184.476
1421.32	0.32524	0.67476	7.05687	7.73341	-1.53491	26.53158	30.81361	1.79188	0.55807	0.84898	105.78256	0.29196	0.45395	7.60704	112.98596	1.08719	0.0731974	1786.4946	57351.188	 	3671.139
1420.0	0.37486	0.62514	7.06535	7.72414	-1.65288	26.23854	30.93327	1.78356	0.56068	1.27341	104.88946	0.44002	0.44698	7.61495	189.81089	1.08521	0.0435373	1785.50456	56776.709	443.699	4189.398
1415.0	0.53118	0.46882	7.09272	7.6946	-2.02908	25.31488	31.30777	1.75702	0.56915	3.82256	102.24788	1.34138	0.42486	7.64587	739.1891	1.07763	0.0111466	1782.06962	54931.036	369.135	5822.02
1410.0	0.63958	0.36042	7.11296	7.67314	-2.30233	24.66415	31.55613	1.73803	0.57536	7.46435	100.60626	2.64818	0.40934	7.6783	1599.10434	1.0699	0.00513727	1778.95832	53587.267	268.754	6953.257
1405.0	0.71785	0.28215	7.12883	7.65662	-2.51268	24.18015	31.71875	1.72398	0.58005	12.1157	99.57885	4.33321	0.39801	7.71166	2651.39298	1.06211	0.00308918	1776.13547	52559.238	205.606	7769.268
1400.0	0.77633	0.22367	7.14189	7.64323	-2.68315	23.80172	31.82503	1.7131	0.58374	17.88178	98.94414	6.43488	0.38944	7.74623	3812.34146	1.05422	0.00214205	1773.5682	51738.617	164.124	8378.383
1395.0	0.82131	0.17869	7.15308	7.63199	-2.82618	23.49588	31.89256	1.70437	0.58673	24.78709	98.57264	8.96278	0.38278	7.78234	5034.38521	1.04619	0.00161724	1771.22245	51060.074	135.709	8845.928
1390.0	0.85671	0.14329	7.16299	7.62219	-2.95105	23.23784	31.93234	1.69714	0.58923	32.59876	98.38206	11.83289	0.37746	7.81958	6294.83617	1.03809	0.00128954	1769.07495	50482.262	115.562	9213.246
1385.0	0.88519	0.11481	7.17201	7.6134	-3.06288	23.01396	31.95187	1.69101	0.59136	40.83891	98.31956	14.87072	0.37313	7.85855	7585.75803	1.02984	0.00106687	1767.10009	49978.024	100.848	9507.491
1380.0	0.90847	0.0915283	7.1804	7.60533	-3.16574	22.81334	31.95623	1.68568	0.59323	48.95525	98.34956	17.873	0.36953	7.89856	8906.94449	1.02153	9.05879E-4	1765.28087	49528.931	89.8186	9747.089
1375.0	0.92782	0.0721809	7.18834	7.59777	-3.2619	22.62992	31.9489	1.68096	0.5949	56.50398	98.44843	20.67487	0.36649	7.94017	10262.37926	1.0131	7.83854E-4	1763.59827	49122.109	81.3644	9944.91
1370.0	0.94413	0.0558713	7.19595	7.59061	-3.35313	22.45889	31.93256	1.67672	0.5964	63.25634	98.59916	23.18985	0.36388	7.98304	11659.59481	1.00461	6.87829E-4	1762.03648	48748.176	74.7866	10110.335
1365.0	0.95803	0.0419744	7.20332	7.58373	-3.44069	22.29689	31.90894	1.67286	0.59778	69.1534	98.78987	25.39392	0.36161	8.02745	13105.50214	0.99601	6.1008E-4	1760.58199	48400.575	69.5202	10249.917
1360.21	0.96978	0.0302223	7.21035	7.57723	-3.52345	22.14381	31.88154	1.6694	0.59902	74.16717	98.99879	27.27416	0.35966	8.07099	14560.10815	0.98774	5.47524E-4	1759.28024	48085.267	 	10366.242
1360.0	0.97048	0.0295165	7.21076	7.57686	-3.5282	22.13385	31.881	1.66921	0.59908	74.46153	99.00529	27.38471	0.35955	8.07357	14638.03535	0.9873	5.4454E-4	1759.25127	48069.418	66.2314	10373.541
1356.05	0.98327	0.016733	7.21847	7.56989	-3.61698	21.94858	31.86834	1.66584	0.6003	79.75854	99.14422	29.37794	0.35746	8.12256	16162.20229	0.97897	4.91996E-4	1758.75903	47775.116	 	10504.374
1356.05	0.98327	0.016733	7.21847	7.56989	-3.61698	21.94858	31.86834	1.66584	0.6003	79.75854	99.14422	29.37794	0.35746	8.12256	16162.20229	0.97897	4.91996E-4	1758.75903	47775.116	 	10504.373
1355.0	0.98638	0.013615	7.22047	7.56809	-3.63984	21.90132	31.86387	1.665	0.6006	81.04436	99.18619	29.8629	0.35694	8.13593	16574.6648	0.97673	4.79442E-4	1758.83269	47699.627	73.9582	10536.281
1350.0	1.0	0.0	7.22973	7.55985	-3.74478	21.68606	31.83888	1.66119	0.60198	86.68633	99.40474	31.99566	0.35466	 	18586.56387	 	4.26232E-4	 	47356.004	68.7246	10673.334
1345.0	1.0	0.0	7.23236	7.55711	-3.7797	21.66867	31.77406	1.65945	0.60261	87.12692	99.7634	32.16335	0.35444	 	19732.71416	 	4.00238E-4	 	47093.575	52.4858	 
1340.0	1.0	0.0	7.23498	7.55437	-3.81458	21.6513	31.70923	1.6577	0.60324	87.56774	100.12128	32.33118	0.35423	 	20957.4299	 	3.75685E-4	 	46898.589	38.9972	 
1335.0	1.0	0.0	7.2376	7.55163	-3.8494	21.63394	31.6444	1.65595	0.60388	88.00877	100.47835	32.49914	0.35402	 	22266.61644	 	3.525E-4	 	46703.931	38.9316	 
1330.0	1.0	0.0	7.24022	7.5489	-3.88418	21.6166	31.57957	1.65419	0.60453	88.45	100.83462	32.66722	0.3538	 	23666.66102	 	3.30616E-4	 	46509.579	38.8704	 
1325.0	1.0	0.0	7.24284	7.54617	-3.9189	21.59928	31.51474	1.65242	0.60517	88.89144	101.19007	32.83544	0.35359	 	25164.4751	 	3.09968E-4	 	46315.529	38.81	 
1320.0	1.0	0.0	7.24545	7.54345	-3.95356	21.58198	31.44991	1.65065	0.60582	89.33307	101.54471	33.00378	0.35338	 	26767.54066	 	2.90492E-4	 	46121.778	38.7502	 
1315.0	1.0	0.0	7.24806	7.54073	-3.98818	21.56469	31.38508	1.64887	0.60648	89.77489	101.89853	33.17224	0.35316	 	28483.96098	 	2.72131E-4	 	45928.325	38.6906	 
1310.0	1.0	0.0	7.25067	7.53802	-4.02274	21.54742	31.32025	1.64708	0.60714	90.21688	102.25152	33.34082	0.35295	 	30322.51611	 	2.54826E-4	 	45735.168	38.6314	 
1305.0	1.0	0.0	7.25328	7.53531	-4.05726	21.53017	31.25542	1.64528	0.6078	90.65904	102.60368	33.50951	0.35274	 	32292.72382	 	2.38523E-4	 	45542.309	38.5718	 
1300.0	1.0	0.0	7.25589	7.5326	-4.09172	21.51293	31.19059	1.64348	0.60847	91.10136	102.955	33.67832	0.35252	 	34404.90623	 	2.2317E-4	 	45349.746	38.5126	 
1295.0	1.0	0.0	7.25849	7.5299	-4.12613	21.49572	31.12575	1.64167	0.60914	91.54383	103.30547	33.84724	0.35231	 	36670.26303	 	2.08718E-4	 	45157.479	38.4534	 
1290.0	1.0	0.0	7.26109	7.5272	-4.16048	21.47851	31.06092	1.63985	0.60981	91.98645	103.6551	34.01626	0.3521	 	39100.95177	 	1.95119E-4	 	44965.508	38.3942	 
1285.0	1.0	0.0	7.26369	7.5245	-4.19479	21.46133	30.99608	1.63802	0.61049	92.4292	104.00388	34.18539	0.35188	 	41710.17598	 	1.82328E-4	 	44773.833	38.335	 
1280.0	1.0	0.0	7.26629	7.52181	-4.22905	21.44416	30.93125	1.63619	0.61118	92.87209	104.35179	34.35462	0.35167	 	44512.28202	 	1.70302E-4	 	44582.453	38.276	 
1275.0	1.0	0.0	7.26889	7.51913	-4.26325	21.42701	30.86641	1.63435	0.61186	93.3151	104.69885	34.52394	0.35145	 	47522.86548	 	1.59E-4	 	44391.369	38.2168	 
1270.0	1.0	0.0	7.27148	7.51645	-4.2974	21.40988	30.80157	1.6325	0.61256	93.75822	105.04503	34.69337	0.35124	 	50758.88817	 	1.48383E-4	 	44200.579	38.158	 
1265.0	1.0	0.0	7.27407	7.51377	-4.3315	21.39276	30.73674	1.63064	0.61326	94.20144	105.39035	34.86288	0.35103	 	54238.80688	 	1.38412E-4	 	44010.085	38.0988	 
1260.0	1.0	0.0	7.27666	7.51109	-4.36555	21.37567	30.6719	1.62878	0.61396	94.64477	105.73478	35.03249	0.35081	 	57982.71504	 	1.29054E-4	 	43819.884	38.0402	 
1255.0	1.0	0.0	7.27925	7.50842	-4.39955	21.35858	30.60706	1.6269	0.61466	95.08819	106.07834	35.20219	0.3506	 	62012.49875	 	1.20274E-4	 	43629.979	37.981	 
1250.0	1.0	0.0	7.28184	7.50576	-4.4335	21.34152	30.54222	1.62502	0.61538	95.5317	106.42101	35.37197	0.35039	 	66352.00875	 	1.12041E-4	 	43440.367	37.9224	 
1245.0	1.0	0.0	7.28442	7.50309	-4.4674	21.32447	30.47738	1.62314	0.61609	95.97528	106.76279	35.54183	0.35017	 	71027.24999	 	1.04322E-4	 	43251.05	37.8634	 
1240.0	1.0	0.0	7.287	7.50044	-4.50124	21.30744	30.41254	1.62124	0.61681	96.41893	107.10367	35.71177	0.34996	 	76066.59073	 	9.70901E-5	 	43062.02	37.806	 
1235.0	1.0	0.0	7.28958	7.49778	-4.53504	21.29043	30.34769	1.61933	0.61754	96.86264	107.44366	35.88179	0.34975	 	81500.99335	 	9.03168E-5	 	42873.275	37.749	 
1230.0	1.0	0.0	7.29216	7.49513	-4.56878	21.27343	30.28285	1.61742	0.61827	97.30641	107.78274	36.05188	0.34953	 	87364.26926	 	8.3976E-5	 	42684.814	37.6922	 
1225.0	1.0	0.0	7.29474	7.49248	-4.60248	21.25645	30.21801	1.6155	0.619	97.75023	108.12092	36.22205	0.34932	 	93693.36053	 	7.80429E-5	 	42496.637	37.6354	 
1220.0	1.0	0.0	7.29731	7.48984	-4.63612	21.23949	30.15316	1.61357	0.61974	98.1941	108.45819	36.39228	0.34911	 	100528.6513	 	7.24937E-5	 	42308.742	37.579	 
1215.0	1.0	0.0	7.29988	7.4872	-4.66972	21.22255	30.08832	1.61163	0.62049	98.63799	108.79454	36.56258	0.34889	 	107914.3122	 	6.73061E-5	 	42121.129	37.5226	 
1210.0	1.0	0.0	7.30245	7.48457	-4.70326	21.20562	30.02347	1.60969	0.62124	99.08191	109.12997	36.73295	0.34868	 	115898.6817	 	6.24587E-5	 	41933.798	37.4662	 
1205.0	1.0	0.0	7.30502	7.48194	-4.73675	21.18871	29.95862	1.60773	0.62199	99.52586	109.46448	36.90338	0.34847	 	124534.6884	 	5.79315E-5	 	41746.746	37.4104	 
1200.0	1.0	0.0	7.30758	7.47931	-4.77019	21.17182	29.89378	1.60577	0.62275	99.96982	109.79807	37.07386	0.34825	 	133880.3189	 	5.37053E-5	 	41559.975	37.3542	 
1195.0	1.0	0.0	7.31015	7.47669	-4.80358	21.15494	29.82893	1.6038	0.62352	100.41378	110.13072	37.2444	0.34804	 	143999.1368	 	4.97619E-5	 	41373.484	37.2982	 
1190.0	1.0	0.0	7.31271	7.47407	-4.83693	21.13808	29.76408	1.60182	0.62429	100.85775	110.46245	37.415	0.34782	 	154960.8584	 	4.60844E-5	 	41187.27	37.2428	 
1185.0	1.0	0.0	7.31527	7.47146	-4.87022	21.12124	29.69923	1.59983	0.62507	101.3017	110.79323	37.58565	0.34761	 	166841.9918	 	4.26563E-5	 	41001.335	37.187	 
1180.0	1.0	0.0	7.31782	7.46885	-4.90346	21.10441	29.63438	1.59784	0.62585	101.74565	111.12308	37.75635	0.3474	 	179726.5472	 	3.94625E-5	 	40815.676	37.1318	 
1175.0	1.0	0.0	7.32038	7.46624	-4.93665	21.08761	29.56953	1.59583	0.62663	102.18958	111.45199	37.92709	0.34718	 	193706.8258	 	3.64884E-5	 	40630.294	37.0764	 
1170.0	1.0	0.0	7.32293	7.46364	-4.96979	21.07082	29.50467	1.59382	0.62742	102.63348	111.77994	38.09788	0.34697	 	208884.2978	 	3.37204E-5	 	40445.188	37.0212	 
1165.0	1.0	0.0	7.32548	7.46104	-5.00288	21.05404	29.43982	1.59179	0.62822	103.07734	112.10695	38.26871	0.34676	 	225370.5796	 	3.11454E-5	 	40260.357	36.9662	 
1160.0	1.0	0.0	7.32803	7.45844	-5.03593	21.03728	29.37497	1.58976	0.62903	103.52117	112.43301	38.43958	0.34654	 	243288.5216	 	2.87513E-5	 	40075.8	36.9114	 
1155.0	1.0	0.0	7.33058	7.45585	-5.06892	21.02055	29.31011	1.58772	0.62983	103.96495	112.75811	38.61049	0.34633	 	262773.4209	 	2.65264E-5	 	39891.516	36.8568	 
1150.0	1.0	0.0	7.33312	7.45326	-5.10186	21.00382	29.24526	1.58567	0.63065	104.40868	113.08225	38.78143	0.34612	 	283974.3735	 	2.44601E-5	 	39707.505	36.8022	 
1145.0	1.0	0.0	7.33567	7.45068	-5.13475	20.98712	29.1804	1.58361	0.63147	104.85235	113.40543	38.9524	0.3459	 	307055.7829	 	2.2542E-5	 	39523.766	36.7478	 
1140.0	1.0	0.0	7.33821	7.4481	-5.1676	20.97043	29.11554	1.58154	0.63229	105.29595	113.72765	39.12341	0.34569	 	332199.0451	 	2.07624E-5	 	39340.299	36.6934	 
1135.0	1.0	0.0	7.34074	7.44552	-5.20039	20.95376	29.05068	1.57947	0.63313	105.73949	114.0489	39.29444	0.34548	 	359604.4308	 	1.91122E-5	 	39157.102	36.6394	 
1130.0	1.0	0.0	7.34328	7.44295	-5.23314	20.9371	28.98582	1.57738	0.63396	106.18294	114.36918	39.4655	0.34526	 	389493.1903	 	1.75829E-5	 	38974.174	36.5856	 
1125.0	1.0	0.0	7.34582	7.44039	-5.26583	20.92047	28.92096	1.57528	0.63481	106.62631	114.68849	39.63658	0.34505	 	422109.9083	 	1.61665E-5	 	38791.516	36.5316	 
1120.0	1.0	0.0	7.34835	7.43782	-5.29848	20.90385	28.8561	1.57318	0.63566	107.0696	115.00682	39.80768	0.34484	 	457725.1406	 	1.48552E-5	 	38609.125	36.4782	 
1115.0	1.0	0.0	7.35088	7.43526	-5.33108	20.88725	28.79124	1.57106	0.63651	107.51278	115.32417	39.9788	0.34462	 	496638.3686	 	1.36422E-5	 	38427.002	36.4246	 
1110.0	1.0	0.0	7.35341	7.4327	-5.36363	20.87066	28.72638	1.56894	0.63737	107.95587	115.64055	40.14994	0.34441	 	539181.3113	 	1.25205E-5	 	38245.146	36.3712	 
1105.0	1.0	0.0	7.35593	7.43015	-5.39612	20.85409	28.66152	1.56681	0.63824	108.39884	115.95594	40.32109	0.3442	 	585721.642	 	1.1484E-5	 	38063.555	36.3182	 
1100.0	1.0	0.0	7.35846	7.4276	-5.42858	20.83754	28.59665	1.56466	0.63912	108.8417	116.27035	40.49225	0.34398	 	636667.1613	 	1.05267E-5	 	37882.229	36.2652	 
1095.0	1.0	0.0	7.36098	7.42506	-5.46098	20.82101	28.53179	1.56251	0.64	109.28444	116.58377	40.66342	0.34377	 	692470.4857	 	9.64316E-6	 	37701.167	36.2124	 
1090.0	1.0	0.0	7.3635	7.42252	-5.49333	20.80449	28.46692	1.56035	0.64088	109.72706	116.8962	40.8346	0.34355	 	753634.3209	 	8.82815E-6	 	37520.369	36.1596	 
1085.0	1.0	0.0	7.36602	7.41998	-5.52563	20.78799	28.40205	1.55817	0.64178	110.16954	117.20763	41.00579	0.34334	 	820717.3944	 	8.07683E-6	 	37339.832	36.1074	 
1080.0	1.0	0.0	7.36853	7.41745	-5.55789	20.77151	28.33718	1.55599	0.64268	110.61188	117.51808	41.17697	0.34313	 	894341.1377	 	7.38464E-6	 	37159.558	36.0548	 
1075.0	1.0	0.0	7.37105	7.41492	-5.5901	20.75504	28.27231	1.5538	0.64358	111.05408	117.82753	41.34816	0.34291	 	975197.2162	 	6.74734E-6	 	36979.544	36.0028	 
1070.0	1.0	0.0	7.37356	7.41239	-5.62225	20.73859	28.20744	1.5516	0.6445	111.49613	118.13597	41.51935	0.3427	 	1064056.023	 	6.16094E-6	 	36799.789	35.951	 
1065.0	1.0	0.0	7.37607	7.40987	-5.65436	20.72216	28.14257	1.54938	0.64542	111.93803	118.44342	41.69053	0.34249	 	1161776.266	 	5.62172E-6	 	36620.294	35.899	 
1060.0	1.0	0.0	7.37857	7.40735	-5.68642	20.70575	28.0777	1.54716	0.64635	112.37976	118.74987	41.86171	0.34227	 	1269315.794	 	5.12621E-6	 	36441.057	35.8474	 
1055.0	1.0	0.0	7.38108	7.40484	-5.71844	20.68935	28.01283	1.54493	0.64728	112.82133	119.05531	42.03288	0.34206	 	1387743.846	 	4.67116E-6	 	36262.076	35.7962	 
1050.0	1.0	0.0	7.38358	7.40233	-5.7504	20.67297	27.94795	1.54268	0.64822	113.26272	119.35975	42.20404	0.34185	 	1518254.896	 	4.25355E-6	 	36083.352	35.7448	 
1045.0	1.0	0.0	7.38608	7.39982	-5.78232	20.6566	27.88308	1.54043	0.64917	113.70394	119.66318	42.37519	0.34163	 	1662184.342	 	3.87055E-6	 	35904.883	35.6938	 
1040.0	1.0	0.0	7.38858	7.39732	-5.81419	20.64026	27.8182	1.53817	0.65013	114.14497	119.96559	42.54632	0.34142	 	1821026.279	 	3.51953E-6	 	35726.668	35.643	 
1035.0	1.0	0.0	7.39108	7.39482	-5.84601	20.62393	27.75333	1.53589	0.65109	114.58581	120.267	42.71744	0.34121	 	1996453.661	 	3.19805E-6	 	35548.707	35.5922	 
1030.0	1.0	0.0	7.39357	7.39232	-5.87778	20.60762	27.68845	1.5336	0.65206	115.02646	120.56739	42.88854	0.34099	 	2190341.183	 	2.90382E-6	 	35370.997	35.542	 
1025.0	1.0	0.0	7.39607	7.38983	-5.9095	20.59132	27.62357	1.53131	0.65304	115.4669	120.86677	43.05962	0.34078	 	2404791.282	 	2.63472E-6	 	35193.54	35.4914	 
1020.0	1.0	0.0	7.39856	7.38734	-5.94118	20.57505	27.55869	1.529	0.65402	115.90714	121.16513	43.23068	0.34057	 	2642163.701	 	2.38878E-6	 	35016.332	35.4416	 
1015.0	1.0	0.0	7.40105	7.38486	-5.97281	20.55878	27.49381	1.52668	0.65501	116.34717	121.46247	43.40171	0.34035	 	2905109.128	 	2.16417E-6	 	34839.373	35.3918	 
1010.0	1.0	0.0	7.40353	7.38238	-6.00439	20.54254	27.42893	1.52436	0.65601	116.78698	121.75879	43.57272	0.34014	 	3196607.523	 	1.95918E-6	 	34662.663	35.342	 
1005.0	1.0	0.0	7.40602	7.3799	-6.03592	20.52632	27.36404	1.52202	0.65702	117.22657	122.05409	43.74369	0.33993	 	3520011.801	 	1.77225E-6	 	34486.2	35.2926	 
1000.0	1.0	0.0	7.4085	7.37743	-6.06741	20.51011	27.29916	1.51967	0.65804	117.66594	122.34837	43.91464	0.33971	 	3879097.684	 	1.6019E-6	 	34309.983	35.2434	 
995.0	1.0	0.0	7.41098	7.37496	-6.09885	20.49391	27.23428	1.5173	0.65906	118.10506	122.64162	44.08556	0.3395	 	4278120.632	 	1.44679E-6	 	34134.011	35.1944	 
990.0	1.0	0.0	7.41346	7.37249	-6.13024	20.47774	27.16939	1.51493	0.6601	118.54395	122.93385	44.25644	0.33928	 	4721880.925	 	1.30565E-6	 	33958.283	35.1456	 
985.0	1.0	0.0	7.41594	7.37003	-6.16158	20.46158	27.1045	1.51255	0.66114	118.9826	123.22505	44.42728	0.33907	 	5215798.127	 	1.17733E-6	 	33782.797	35.0972	 
980.0	1.0	0.0	7.41841	7.36758	-6.19288	20.44544	27.03962	1.51015	0.66219	119.421	123.51522	44.59809	0.33886	 	5765996.359	 	1.06076E-6	 	33607.553	35.0488	 
975.0	1.0	0.0	7.42088	7.36512	-6.22413	20.42932	26.97473	1.50774	0.66324	119.85914	123.80436	44.76885	0.33864	 	6379402.058	 	9.54934E-7	 	33432.55	35.0006	 
970.0	1.0	0.0	7.42335	7.36267	-6.25533	20.41321	26.90984	1.50532	0.66431	120.29703	124.09247	44.93957	0.33843	 	7063856.139	 	8.58951E-7	 	33257.785	34.953	 
965.0	1.0	0.0	7.42582	7.36022	-6.28649	20.39712	26.84494	1.50289	0.66538	120.73464	124.37955	45.11025	0.33822	 	7828242.817	 	7.71962E-7	 	33083.259	34.9052	 
960.0	1.0	0.0	7.42829	7.35778	-6.31759	20.38105	26.78005	1.50045	0.66647	121.17199	124.66559	45.28088	0.338	 	8682637.702	 	6.93188E-7	 	32908.969	34.858	 
955.0	1.0	0.0	7.43075	7.35534	-6.34866	20.36499	26.71516	1.498	0.66756	121.60907	124.95059	45.45146	0.33779	 	9638478.22	 	6.21913E-7	 	32734.915	34.8108	 
950.0	1.0	0.0	7.43321	7.3529	-6.37967	20.34895	26.65026	1.49553	0.66866	122.04586	125.23456	45.622	0.33758	 	1.070875992E7	 	5.57477E-7	 	32561.094	34.7642	 
945.0	1.0	0.0	7.43567	7.35047	-6.41064	20.33293	26.58537	1.49305	0.66977	122.48237	125.5175	45.79248	0.33736	 	1.190826285E7	 	4.99274E-7	 	32387.507	34.7174	 
940.0	1.0	0.0	7.43813	7.34804	-6.44156	20.31693	26.52047	1.49057	0.67089	122.91859	125.79939	45.9629	0.33715	 	1.325381277E7	 	4.46746E-7	 	32214.151	34.6712	 
