T (C)	Fraction solid (wt)-TOTAL	Fraction liquid (wt)-LIQUID	Density (g/(cm)^3)-TOTAL	Molar volume (cm^3)-TOTAL	Volume change (%)-  	Average expansion coeff. (10e-6 1/K)-  	Thermal conductivity (W/(m*K))-TOTAL	Electrical resistivity (10e-6 Ohm*m)-TOTAL	Electrical conductivity (10e6 1/(Ohm*m))-TOTAL	Young's modulus (GPa)-TOTAL	Bulk modulus (GPa)-TOTAL	Shear modulus(GPa)-TOTAL	Poisson's ratio-TOTAL	Liquid viscosity (mPa s)-  	Total viscosity (mPa s)-  	Liquid diffusivity (10e-9 (m^2)/s)-  	Total diffusivity (10e-9 (m^2)/s)-  	Surface Tension (mN/m)-  	Enthalpy (J/mole)-TOTAL	Specific heat (J/(mole K))-TOTAL	Latent heat (J/mole)-TOTAL
1500.0	0.0	1.0	6.91142	7.84689	0.0	25.44126	32.13608	1.79792	0.5562	0.0	101.69109	0.0	0.49975	6.5763	6.5763	1.31598	1.31598	1800.14421	65824.994	 	0.0
1495.0	0.0	1.0	6.91528	7.84251	-0.0557246	25.38721	32.05986	1.79711	0.55645	0.0	101.87505	0.0	0.49975	6.63208	6.63208	1.30124	1.30124	1802.10328	65603.365	44.3258	0.0
1490.0	0.0	1.0	6.91913	7.83815	-0.11129	25.33318	31.98364	1.7963	0.5567	0.0	102.05901	0.0	0.49975	6.68866	6.68866	1.28658	1.28658	1804.05924	65382.327	44.2076	0.0
1485.0	0.0	1.0	6.92297	7.83381	-0.16671	25.27918	31.90742	1.79549	0.55695	0.0	102.24297	0.0	0.49975	6.74604	6.74604	1.27202	1.27202	1806.01204	65161.876	44.0902	0.0
1480.0	0.0	1.0	6.9268	7.82947	-0.22197	25.2252	31.8312	1.79467	0.55721	0.0	102.42693	0.0	0.49975	6.80425	6.80425	1.25755	1.25755	1807.96165	64942.007	43.9738	0.0
1475.98	0.0	1.0	6.92988	7.82599	-0.26632	25.18178	31.76988	1.794	0.55741	0.0	102.57494	0.0	0.49975	6.85168	6.85168	1.24598	1.24598	1809.52786	64765.525	43.8712	0.0070
1475.0	0.03634	0.96366	6.93669	7.81829	-0.36446	24.94774	31.82545	1.78987	0.5587	7.19551E-5	100.76413	2.40748E-5	0.49441	6.85143	7.18734	1.24533	1.18713	1809.15915	64355.173	419.896	367.54
1470.0	0.19298	0.80702	6.96658	7.78483	-0.79085	23.93974	32.05916	1.77174	0.56442	0.0587316	92.9976	0.0199597	0.47125	6.85103	12.2842	1.24184	0.69259	1807.46638	62559.243	359.186	1944.752
1465.0	0.31124	0.68876	6.99002	7.75897	-1.12037	23.1742	32.22516	1.75756	0.56897	0.40637	87.20284	0.13978	0.45357	6.85156	34.98085	1.23818	0.24252	1805.97666	61161.473	279.554	3124.373
1460.0	0.40336	0.59664	7.00903	7.73838	-1.38283	22.57667	32.34448	1.74604	0.57273	1.16877	82.76738	0.40591	0.43967	6.85291	84.55758	1.23438	0.10004	1804.6554	60035.101	225.274	4033.163
1455.0	0.47693	0.52307	7.02491	7.72143	-1.59884	22.09539	32.42994	1.73641	0.5759	2.32524	79.30162	0.81389	0.42846	6.85477	162.08756	1.23048	0.0520377	1803.47908	59100.899	186.84	4750.343
1450.0	0.53683	0.46317	7.03838	7.70729	-1.77901	21.70404	32.49007	1.72818	0.57864	3.79344	76.55665	1.33641	0.41926	6.85754	264.80238	1.22643	0.0317605	1802.42483	58307.931	158.594	5326.847
1445.0	0.58642	0.41358	7.05008	7.69517	-1.93352	21.37693	32.53062	1.72102	0.58105	5.48342	74.35857	1.9423	0.41158	6.86067	389.02908	1.22231	0.0215559	1801.48037	57621.261	137.334	5797.61
1440.0	0.62803	0.37197	7.06038	7.68466	-2.06743	21.10149	32.55583	1.71469	0.5832	7.31664	72.58547	2.60364	0.40508	6.86438	531.37209	1.21809	0.0157356	1800.63095	57016.408	120.971	6187.11
1435.0	0.66335	0.33665	7.06955	7.67539	-2.18551	20.86573	32.56879	1.709	0.58514	9.23085	71.14878	3.29787	0.39952	6.86859	689.03614	1.21379	0.0120996	1799.86668	56475.711	108.139	6513.0
1430.0	0.69365	0.30635	7.07782	7.66712	-2.29097	20.66163	32.57176	1.70384	0.58691	11.17997	69.98244	4.00802	0.3947	6.87328	859.94976	1.20942	0.00966644	1799.1794	55986.139	97.9144	6788.311
1425.0	0.71984	0.28016	7.08536	7.65966	-2.386	20.48367	32.56672	1.6991	0.58855	13.13069	69.03737	4.72158	0.3905	6.87819	1042.63927	1.205	0.0079493	1798.56142	55537.876	89.6526	7022.853
1420.0	0.74267	0.25733	7.09227	7.65292	-2.47194	20.32862	32.55505	1.69471	0.59007	15.05831	68.27591	5.42914	0.38681	6.88381	1236.04215	1.20048	0.00668573	1798.00309	55123.399	82.8954	7224.145
1415.0	0.76274	0.23726	7.09866	7.64675	-2.55049	20.19218	32.53796	1.69059	0.59151	16.95119	67.66576	6.12606	0.38353	6.88982	1439.91177	1.19589	0.00572218	1797.49926	54736.529	77.374	7398.364
1410.0	0.78045	0.21955	7.10463	7.64099	-2.62394	20.06839	32.51593	1.68673	0.59286	18.79632	67.18377	6.80726	0.38061	6.89591	1653.69805	1.19129	0.00496768	1797.05242	54373.04	72.6978	7549.73
1405.0	0.79614	0.20386	7.1102	7.63568	-2.69165	19.95914	32.49005	1.68305	0.59416	20.58665	66.81235	7.46979	0.37799	6.90263	1877.40451	1.1866	0.00436274	1796.64893	54029.23	68.762	7681.942
1400.0	0.81014	0.18986	7.11545	7.63068	-2.75534	19.85995	32.46071	1.67956	0.5954	22.31732	66.53588	8.11163	0.37564	6.90942	2110.99929	1.1819	0.00386842	1796.29104	53702.105	65.425	7797.988
1395.0	0.82266	0.17734	7.1204	7.62599	-2.81511	19.77064	32.42846	1.6762	0.59659	23.98911	66.34073	8.73281	0.37351	6.91678	2355.04272	1.17711	0.00345719	1795.97166	53389.225	62.576	7900.307
1390.87	0.83376	0.16624	7.12489	7.62211	-2.86454	19.6962	32.40218	1.67341	0.59758	25.5463	66.15505	9.3125	0.37161	6.92285	2586.71119	1.17317	0.00313977	1795.73701	53125.95	 	7990.036
1390.87	0.83376	0.16624	7.12489	7.62211	-2.86454	19.6962	32.40218	1.67341	0.59758	25.5463	66.15505	9.3125	0.37161	6.92285	2586.71119	1.17317	0.00313977	1795.73701	53125.95	 	7990.036
1390.0	0.83628	0.16372	7.12581	7.62116	-2.87664	19.67589	32.39807	1.67275	0.59782	25.92748	66.17614	9.45406	0.37123	6.92234	2644.28217	1.17264	0.0030698	1795.58303	53062.681	65.3088	8016.803
1385.0	0.84992	0.15008	7.13099	7.61578	-2.94519	19.5613	32.37206	1.66906	0.59914	28.09387	66.32152	10.25957	0.36915	6.91879	2985.65449	1.16972	0.00271063	1794.75167	52709.474	70.6414	8160.471
1380.0	0.86207	0.13793	7.1359	7.61074	-3.00941	19.4577	32.34258	1.66554	0.60041	30.1799	66.51156	11.03653	0.36727	6.91524	3342.25196	1.16679	0.00241413	1793.96956	52373.965	67.1018	8286.947
1375.0	0.87295	0.12705	7.14057	7.60601	-3.06976	19.36399	32.31018	1.66217	0.60162	32.18765	66.73921	11.78551	0.36556	6.91199	3715.1367	1.16381	0.00216525	1793.23055	52053.646	64.0638	8398.736
1370.0	0.88273	0.11727	7.14503	7.60151	-3.12705	19.27799	32.27516	1.65892	0.6028	34.11669	66.99936	12.50615	0.364	6.9087	4104.98115	1.16083	0.00195368	1792.53558	51746.449	61.4394	8497.903
1365.0	0.89154	0.10846	7.14933	7.59722	-3.18173	19.19861	32.2379	1.65579	0.60394	35.97245	67.28703	13.20032	0.36256	6.90538	4513.3277	1.15785	0.00177151	1791.88272	51450.653	59.1592	8586.163
1360.0	0.89952	0.10048	7.15346	7.59315	-3.23367	19.12622	32.19871	1.65274	0.60505	37.75475	67.59963	13.8678	0.36124	6.90264	4941.14019	1.15478	0.00161319	1791.26146	51164.822	57.1662	8664.952
1355.0	0.90676	0.093242	7.15746	7.58922	-3.28375	19.05848	32.1578	1.64978	0.60614	39.47112	67.93302	14.5113	0.36001	6.89959	5390.32962	1.15175	0.00147423	1790.67892	50887.742	55.416	8735.479
1350.0	0.91335	0.0866539	7.16133	7.58545	-3.33178	18.99596	32.11537	1.64689	0.60721	41.12086	68.28568	15.13042	0.35888	6.89708	5861.95932	1.14863	0.00135146	1790.1248	50618.387	53.871	8798.767
1347.33	0.91665	0.0833487	7.16338	7.58347	-3.35691	18.9638	32.09219	1.64537	0.60777	41.98271	68.48023	15.4541	0.3583	6.89565	6124.54682	1.14698	0.00129139	1789.84204	50477.253	 	8830.144
1345.0	0.92004	0.0799583	7.16552	7.58142	-3.38313	18.92363	32.07231	1.64402	0.60827	42.86233	68.6441	15.78462	0.35772	6.89453	6379.35045	1.14552	0.00123802	1790.34625	50345.644	54.5486	8865.926
1340.0	0.92679	0.0732054	7.16995	7.57719	-3.43696	18.84377	32.02851	1.64118	0.60932	44.68852	69.00981	16.47133	0.35655	6.89237	6944.86667	1.14233	0.0011337	1791.42283	50070.126	55.1036	8936.339
1335.0	0.93289	0.067114	7.17419	7.57319	-3.48798	18.77128	31.98328	1.6384	0.61035	46.43103	69.39333	17.12721	0.35548	6.88998	7537.73623	1.13919	0.00104129	1792.50575	49803.119	53.4014	8998.719
1330.0	0.93839	0.061606	7.17825	7.56938	-3.53655	18.70516	31.93677	1.63569	0.61136	48.0956	69.79231	17.75431	0.35448	6.88761	8160.21105	1.13604	9.58869E-4	1793.5948	49543.588	51.9062	9054.095
1325.0	0.94339	0.0566143	7.18216	7.56574	-3.58285	18.64501	31.88914	1.63302	0.61236	49.68719	70.20518	18.3544	0.35355	6.8854	8814.68858	1.13286	8.84906E-4	1794.68558	49290.655	50.5866	9103.343
1320.0	0.94792	0.0520818	7.18593	7.56227	-3.6271	18.59029	31.84055	1.6304	0.61335	51.21092	70.63026	18.92932	0.35269	6.88342	9503.76896	1.12964	8.18177E-4	1795.77442	49043.57	49.417	9147.211
1315.0	0.95204	0.0479575	7.18958	7.55893	-3.66974	18.53976	31.79106	1.62781	0.61432	52.67198	71.06632	19.48098	0.35188	6.88151	10230.17459	1.12641	7.57696E-4	1796.86862	48801.685	48.377	9186.343
1310.0	0.9558	0.0441976	7.19312	7.55571	-3.71079	18.49343	31.74078	1.62526	0.61529	54.07462	71.51225	20.01091	0.35113	6.88021	10996.87229	1.12307	7.02651E-4	1797.95999	48564.442	47.4486	9221.293
1305.0	0.95923	0.0407654	7.19656	7.55259	-3.75054	18.45049	31.68982	1.62273	0.61625	55.42364	71.96687	20.52089	0.35042	6.87896	11807.11787	1.11973	6.52366E-4	1799.05359	48331.355	46.6174	9252.547
1300.0	0.96237	0.037627	7.19992	7.54957	-3.78902	18.41092	31.63823	1.62023	0.6172	56.72215	72.42934	21.01204	0.34975	6.87855	12664.16862	1.11625	6.0629E-4	1800.14199	48101.999	45.8712	9280.523
1295.0	0.96525	0.0347519	7.20319	7.54662	-3.82652	18.37391	31.58608	1.61774	0.61815	57.97507	72.89899	21.48618	0.34912	6.87864	13571.83947	1.11268	5.63943E-4	1801.23278	47876.003	45.1992	9305.593
1290.0	0.96788	0.0321154	7.20639	7.54376	-3.86298	18.33965	31.53346	1.61528	0.61909	59.18511	73.375	21.94431	0.34853	6.87966	14534.00959	1.10897	5.24931E-4	1802.31582	47653.038	44.593	9328.082
1285.0	0.97031	0.0296919	7.20953	7.54096	-3.89866	18.30741	31.48039	1.61282	0.62003	60.3564	73.85702	22.38796	0.34797	6.88144	15554.97511	1.10514	4.88907E-4	1803.39914	47432.813	44.045	9348.277
1280.0	0.97254	0.0274631	7.21261	7.53823	-3.93354	18.27728	31.42693	1.61038	0.62097	61.49177	74.34437	22.81819	0.34743	6.88437	16639.34511	1.10112	4.55579E-4	1804.47509	47215.07	43.5486	9366.434
1275.0	0.97459	0.0254082	7.21564	7.53554	-3.96775	18.24887	31.37313	1.60795	0.62191	62.59404	74.83661	23.23604	0.34692	6.88861	17791.98854	1.0969	4.24693E-4	1805.54709	46999.578	43.0984	9382.779
1270.41	0.97596	0.0240408	7.21817	7.53314	-3.9984	18.2248	31.32344	1.60573	0.62277	63.46524	75.29299	23.56625	0.34653	6.89334	18880.99921	1.0929	3.99012E-4	1806.52431	46806.88	 	9393.21
1270.0	0.97678	0.0232197	7.2186	7.53271	-4.00387	18.21456	31.31881	1.60554	0.62284	63.76345	75.33718	23.67991	0.34636	6.9045	19044.16529	1.09084	3.95488E-4	1806.39929	46778.659	44.1838	9404.991
1265.0	0.98452	0.0154835	7.22322	7.52798	-4.06412	18.10783	31.26373	1.60316	0.62377	66.75634	75.87126	24.8212	0.34474	7.0467	20920.61531	1.06537	3.58848E-4	1804.77995	46469.976	61.7366	9515.403
1260.0	0.98933	0.0106684	7.22716	7.5239	-4.11608	18.0251	31.20901	1.60075	0.62471	68.89733	76.40203	25.63806	0.34365	7.19722	22684.86057	1.0397	3.29864E-4	1803.09102	46204.541	53.087	9583.0
1255.0	0.99258	0.00741957	7.23072	7.52017	-4.16363	17.95501	31.15433	1.59833	0.62565	70.56716	76.93124	26.27525	0.34284	7.35461	24433.01099	1.01413	3.05264E-4	1801.35476	45962.276	48.453	9627.857
1250.0	0.99492	0.00508234	7.23408	7.51664	-4.20859	17.89218	31.09971	1.59589	0.62661	71.95815	77.46001	26.80601	0.3422	7.51808	26218.15342	0.98883	2.83548E-4	1799.58437	45733.751	45.705	9659.403
1245.0	0.99667	0.00332725	7.2373	7.51325	-4.25188	17.83392	31.04499	1.59346	0.62757	73.16921	77.98868	27.26808	0.34166	7.68658	28071.49347	0.96398	2.63959E-4	1797.79662	45514.073	43.9356	9682.525
1240.0	0.99803	0.00196622	7.24043	7.50994	-4.29399	17.77877	30.99036	1.59101	0.62853	74.25825	78.5178	27.68355	0.3412	7.85993	30015.22318	0.93961	2.46052E-4	1795.99675	45300.434	42.7278	9700.037
1235.0	0.99912	8.82124E-4	7.24349	7.50671	-4.33523	17.72585	30.93587	1.58855	0.62951	75.26117	79.04742	28.06613	0.34078	8.03815	32067.08571	0.91575	2.29547E-4	1794.18672	45091.109	41.865	9713.66
1230.0	1.0	0.0	7.2465	7.50352	-4.37578	17.67458	30.88167	1.58606	0.63049	76.20163	79.57777	28.42487	0.3404	 	34242.74562	 	2.1425E-4	 	44884.98	41.2258	9724.51
1225.0	1.0	0.0	7.24875	7.5012	-4.40538	17.65677	30.82571	1.58365	0.63145	76.80427	80.10618	28.65397	0.3402	 	36436.07227	 	2.00683E-4	 	44660.33	44.93	 
1220.0	1.0	0.0	7.25099	7.49888	-4.43492	17.63895	30.76975	1.58124	0.63242	77.40929	80.63573	28.88402	0.34	 	38786.53618	 	1.87892E-4	 	44467.509	38.5642	 
1215.0	1.0	0.0	7.25323	7.49657	-4.46442	17.62115	30.71379	1.57881	0.63339	78.01663	81.16638	29.11501	0.3398	 	41306.54504	 	1.75839E-4	 	44274.882	38.5254	 
1210.0	1.0	0.0	7.25546	7.49426	-4.49386	17.60334	30.65783	1.57638	0.63436	78.62627	81.69808	29.34692	0.3396	 	44009.57472	 	1.64484E-4	 	44082.452	38.486	 
1205.0	1.0	0.0	7.2577	7.49195	-4.52326	17.58554	30.60187	1.57394	0.63535	79.23815	82.23079	29.57974	0.3394	 	46910.26871	 	1.53793E-4	 	43890.216	38.4472	 
1200.0	1.0	0.0	7.25993	7.48965	-4.55261	17.56775	30.54591	1.57149	0.63634	79.85225	82.76446	29.81346	0.3392	 	50024.54749	 	1.43731E-4	 	43698.172	38.4088	 
1195.0	1.0	0.0	7.26216	7.48735	-4.5819	17.54995	30.48995	1.56903	0.63734	80.46852	83.29904	30.04806	0.339	 	53369.72893	 	1.34265E-4	 	43506.317	38.371	 
1190.0	1.0	0.0	7.26438	7.48506	-4.61115	17.53216	30.43399	1.56656	0.63834	81.08692	83.83449	30.28353	0.3388	 	56964.66082	 	1.25363E-4	 	43314.65	38.3334	 
1185.0	1.0	0.0	7.26661	7.48276	-4.64035	17.51438	30.37804	1.56408	0.63935	81.70741	84.37077	30.51985	0.33859	 	60829.86698	 	1.16996E-4	 	43123.168	38.2964	 
1180.0	1.0	0.0	7.26883	7.48048	-4.66951	17.49659	30.32208	1.5616	0.64037	82.32995	84.90782	30.757	0.33839	 	64987.70825	 	1.09135E-4	 	42931.868	38.26	 
1175.0	1.0	0.0	7.27105	7.47819	-4.69861	17.47882	30.26612	1.5591	0.64139	82.9545	85.44562	30.99498	0.33819	 	69462.56019	 	1.01754E-4	 	42740.748	38.224	 
1170.0	1.0	0.0	7.27327	7.47591	-4.72766	17.46104	30.21016	1.5566	0.64243	83.58102	85.98411	31.23377	0.33799	 	74281.00915	 	9.48245E-5	 	42549.806	38.1884	 
1165.0	1.0	0.0	7.27548	7.47364	-4.75667	17.44327	30.1542	1.55408	0.64347	84.20948	86.52325	31.47335	0.33779	 	79472.06884	 	8.83235E-5	 	42359.038	38.1536	 
1160.0	1.0	0.0	7.27769	7.47137	-4.78562	17.4255	30.09824	1.55156	0.64451	84.83983	87.06299	31.71371	0.33759	 	85067.41971	 	8.22271E-5	 	42168.442	38.1192	 
1155.0	1.0	0.0	7.2799	7.4691	-4.81453	17.40774	30.04228	1.54903	0.64557	85.47203	87.60331	31.95483	0.33739	 	91101.67357	 	7.65128E-5	 	41978.016	38.0852	 
1150.0	1.0	0.0	7.28211	7.46683	-4.84338	17.38998	29.98633	1.54648	0.64663	86.10605	88.14415	32.19671	0.33719	 	97612.6665	 	7.11592E-5	 	41787.755	38.0522	 
1145.0	1.0	0.0	7.28432	7.46457	-4.87219	17.37222	29.93037	1.54393	0.6477	86.74184	88.68547	32.43932	0.33699	 	104641.7831	 	6.6146E-5	 	41597.659	38.0192	 
1140.0	1.0	0.0	7.28652	7.46232	-4.90095	17.35447	29.87442	1.54137	0.64877	87.37937	89.22723	32.68266	0.33678	 	112234.3156	 	6.14539E-5	 	41407.723	37.9872	 
1135.0	1.0	0.0	7.28872	7.46006	-4.92966	17.33672	29.81846	1.5388	0.64986	88.0186	89.76939	32.9267	0.33658	 	120439.8622	 	5.70644E-5	 	41217.944	37.9558	 
1130.0	1.0	0.0	7.29092	7.45781	-4.95832	17.31898	29.76251	1.53622	0.65095	88.65949	90.3119	33.17144	0.33638	 	129312.769	 	5.29602E-5	 	41028.32	37.9248	 
1125.0	1.0	0.0	7.29311	7.45557	-4.98693	17.30123	29.70655	1.53363	0.65205	89.302	90.85474	33.41686	0.33618	 	138912.6198	 	4.91246E-5	 	40838.847	37.8946	 
1120.0	1.0	0.0	7.29531	7.45333	-5.0155	17.2835	29.6506	1.53102	0.65316	89.94609	91.39785	33.66295	0.33598	 	149304.7815	 	4.55419E-5	 	40649.523	37.8648	 
1115.0	1.0	0.0	7.2975	7.45109	-5.04401	17.26576	29.59465	1.52841	0.65427	90.59172	91.9412	33.90968	0.33578	 	160561.0088	 	4.21971E-5	 	40460.343	37.836	 
1110.0	1.0	0.0	7.29969	7.44886	-5.07248	17.24803	29.5387	1.52579	0.6554	91.23886	92.48475	34.15706	0.33558	 	172760.118	 	3.90762E-5	 	40271.304	37.8078	 
1105.0	1.0	0.0	7.30187	7.44663	-5.10089	17.2303	29.48276	1.52316	0.65653	91.88747	93.02845	34.40505	0.33538	 	185988.7362	 	3.61657E-5	 	40082.403	37.7802	 
1100.0	1.0	0.0	7.30406	7.4444	-5.12926	17.21258	29.42682	1.52052	0.65767	92.53751	93.57227	34.65366	0.33518	 	200342.1357	 	3.34528E-5	 	39893.636	37.7534	 
1095.0	1.0	0.0	7.30624	7.44218	-5.15758	17.19486	29.37088	1.51787	0.65882	93.18893	94.11618	34.90287	0.33498	 	215925.1648	 	3.09255E-5	 	39705.0	37.7272	 
1090.0	1.0	0.0	7.30841	7.43996	-5.18585	17.17715	29.31494	1.51521	0.65998	93.84171	94.66012	35.15265	0.33477	 	232853.2847	 	2.85725E-5	 	39516.49	37.702	 
1085.0	1.0	0.0	7.31059	7.43775	-5.21407	17.15943	29.25901	1.51254	0.66114	94.4958	95.20407	35.403	0.33457	 	251253.7277	 	2.63829E-5	 	39328.104	37.6772	 
1080.0	1.0	0.0	7.31276	7.43553	-5.24224	17.14173	29.20308	1.50985	0.66232	95.15117	95.74798	35.65391	0.33437	 	271266.7901	 	2.43465E-5	 	39139.836	37.6536	 
1075.0	1.0	0.0	7.31494	7.43333	-5.27037	17.12402	29.14716	1.50716	0.6635	95.80778	96.29182	35.90536	0.33417	 	293047.2781	 	2.24537E-5	 	38951.683	37.6306	 
1070.0	1.0	0.0	7.3171	7.43112	-5.29844	17.10632	29.09124	1.50446	0.66469	96.46559	96.83554	36.15733	0.33397	 	316766.1239	 	2.06953E-5	 	38763.64	37.6086	 
1065.0	1.0	0.0	7.31927	7.42893	-5.32647	17.08862	29.03533	1.50174	0.66589	97.12456	97.37912	36.40981	0.33377	 	342612.1958	 	1.90629E-5	 	38575.704	37.5872	 
1060.0	1.0	0.0	7.32143	7.42673	-5.35444	17.07093	28.97942	1.49902	0.6671	97.78466	97.92252	36.6628	0.33357	 	370794.3252	 	1.75482E-5	 	38387.87	37.5668	 
1055.0	1.0	0.0	7.32359	7.42454	-5.38237	17.05324	28.92353	1.49628	0.66832	98.44585	98.46569	36.91626	0.33337	 	401543.5786	 	1.61436E-5	 	38200.133	37.5474	 
1050.0	1.0	0.0	7.32575	7.42235	-5.41025	17.03555	28.86764	1.49354	0.66955	99.10808	99.0086	37.1702	0.33317	 	435115.8072	 	1.48419E-5	 	38012.488	37.529	 
1045.0	1.0	0.0	7.32791	7.42017	-5.43808	17.01787	28.81177	1.49078	0.67079	99.77133	99.55122	37.42459	0.33296	 	471794.509	 	1.36364E-5	 	37824.931	37.5114	 
1040.0	1.0	0.0	7.33006	7.41799	-5.46587	17.00019	28.7559	1.48801	0.67204	100.43556	100.0935	37.67943	0.33276	 	511894.0447	 	1.25205E-5	 	37637.457	37.4948	 
1035.0	1.0	0.0	7.33221	7.41581	-5.4936	16.98252	28.70005	1.48523	0.6733	101.10073	100.63542	37.9347	0.33256	 	555763.254	 	1.14883E-5	 	37450.06	37.4794	 
1030.0	1.0	0.0	7.33436	7.41364	-5.52128	16.96484	28.64421	1.48243	0.67457	101.76679	101.17694	38.19038	0.33236	 	603789.5251	 	1.05341E-5	 	37262.736	37.4648	 
1025.0	1.0	0.0	7.33651	7.41147	-5.54892	16.94718	28.58839	1.47963	0.67584	102.43373	101.71801	38.44646	0.33216	 	656403.3788	 	9.65252E-6	 	37075.479	37.4514	 
1020.0	1.0	0.0	7.33865	7.40931	-5.57651	16.92951	28.53258	1.47681	0.67713	103.10149	102.25862	38.70293	0.33196	 	714083.6351	 	8.83866E-6	 	36888.283	37.4392	 
1015.0	1.0	0.0	7.34079	7.40714	-5.60405	16.91185	28.47679	1.47399	0.67843	103.77004	102.79871	38.95978	0.33176	 	777363.2423	 	8.08778E-6	 	36701.142	37.4282	 
1010.0	1.0	0.0	7.34293	7.40499	-5.63154	16.89419	28.42103	1.47114	0.67974	104.43934	103.33827	39.21698	0.33156	 	846835.8579	 	7.39545E-6	 	36514.051	37.4182	 
1005.0	1.0	0.0	7.34507	7.40283	-5.65898	16.87654	28.36528	1.46829	0.68106	105.10936	103.87724	39.47454	0.33136	 	923163.2867	 	6.75756E-6	 	36327.003	37.4096	 
1000.0	1.0	0.0	7.3472	7.40068	-5.68637	16.85889	28.30956	1.46543	0.6824	105.78006	104.4156	39.73242	0.33116	 	1007083.891	 	6.17022E-6	 	36139.993	37.402	 
995.0	1.0	0.0	7.34933	7.39854	-5.71372	16.84125	28.25387	1.46255	0.68374	106.45141	104.95332	39.99063	0.33095	 	1099422.115	 	5.6298E-6	 	35953.013	37.396	 
990.0	1.0	0.0	7.35146	7.3964	-5.74101	16.8236	28.19821	1.45966	0.68509	107.12336	105.49036	40.24914	0.33075	 	1201099.268	 	5.1329E-6	 	35766.057	37.3912	 
985.0	1.0	0.0	7.35359	7.39426	-5.76826	16.80597	28.14258	1.45675	0.68646	107.79588	106.02669	40.50794	0.33055	 	1313145.762	 	4.67634E-6	 	35579.117	37.388	 
980.0	1.0	0.0	7.35571	7.39212	-5.79546	16.78833	28.08699	1.45384	0.68784	108.46893	106.56227	40.76703	0.33035	 	1436714.994	 	4.25715E-6	 	35392.187	37.386	 
975.0	1.0	0.0	7.35783	7.38999	-5.82261	16.7707	28.03143	1.45091	0.68922	109.14248	107.09707	41.02638	0.33015	 	1573099.12	 	3.87255E-6	 	35205.259	37.3856	 
