T (C)	Fraction solid (wt)-TOTAL	Fraction liquid (wt)-LIQUID	Density (g/(cm)^3)-TOTAL	Molar volume (cm^3)-TOTAL	Volume change (%)-  	Average expansion coeff. (10e-6 1/K)-  	Thermal conductivity (W/(m*K))-TOTAL	Electrical resistivity (10e-6 Ohm*m)-TOTAL	Electrical conductivity (10e6 1/(Ohm*m))-TOTAL	Young's modulus (GPa)-TOTAL	Bulk modulus (GPa)-TOTAL	Shear modulus(GPa)-TOTAL	Poisson's ratio-TOTAL	Liquid viscosity (mPa s)-  	Total viscosity (mPa s)-  	Liquid diffusivity (10e-9 (m^2)/s)-  	Total diffusivity (10e-9 (m^2)/s)-  	Surface Tension (mN/m)-  	Enthalpy (J/mole)-TOTAL	Specific heat (J/(mole K))-TOTAL	Latent heat (J/mole)-TOTAL
1500.0	0.0	1.0	6.9045	7.82698	0.0	26.19126	32.25693	1.79118	0.55829	0.0	101.23169	0.0	0.49974	6.45878	6.45878	1.33993	1.33993	1796.68206	65761.452	 	0.0
1495.0	0.0	1.0	6.90835	7.82261	-0.0558392	26.13906	32.18061	1.79037	0.55854	0.0	101.41483	0.0	0.49974	6.51332	6.51332	1.32496	1.32496	1798.65546	65540.269	44.2366	0.0
1490.0	0.0	1.0	6.91221	7.81825	-0.11152	26.08689	32.10428	1.78955	0.5588	0.0	101.59797	0.0	0.49974	6.56863	6.56863	1.31009	1.31009	1800.6259	65319.675	44.1188	0.0
1485.0	0.0	1.0	6.91605	7.81391	-0.16705	26.03475	32.02796	1.78873	0.55906	0.0	101.78111	0.0	0.49974	6.62472	6.62472	1.29531	1.29531	1802.59333	65099.665	44.002	0.0
1480.0	0.0	1.0	6.91989	7.80957	-0.22242	25.98266	31.95163	1.7879	0.55931	0.0	101.96425	0.0	0.49974	6.68162	6.68162	1.28063	1.28063	1804.55773	64880.235	43.886	0.0
1475.0	0.0	1.0	6.92372	7.80525	-0.27764	25.93061	31.87531	1.78707	0.55957	0.0	102.14738	0.0	0.49974	6.73934	6.73934	1.26604	1.26604	1806.51905	64661.38	43.771	0.0
1470.0	0.0	1.0	6.92755	7.80094	-0.33271	25.87859	31.79898	1.78624	0.55984	0.0	102.33052	0.0	0.49974	6.7979	6.7979	1.25155	1.25155	1808.47725	64443.097	43.6566	0.0
1466.42	0.0	1.0	6.93028	7.79786	-0.37209	25.84131	31.74426	1.78564	0.56002	0.0	102.46183	0.0	0.49974	6.8404	6.8404	1.24121	1.24121	1809.87933	64286.931	43.5609	0.0060
1465.0	0.03978	0.96022	6.93791	7.78929	-0.48152	25.58404	31.8009	1.78101	0.56148	1.04594E-4	100.50505	3.50074E-5	0.49389	6.84026	7.20905	1.24023	1.17678	1809.50041	63826.203	325.603	399.175
1460.0	0.16129	0.83871	6.96165	7.76285	-0.81939	24.79741	31.96802	1.7666	0.56606	0.0289119	94.56738	0.00979472	0.47589	6.84036	10.25667	1.23664	0.82474	1808.29091	62395.161	286.208	1613.064
1455.0	0.25873	0.74127	6.9814	7.74106	-1.09778	24.15996	32.09248	1.75467	0.56991	0.1954	89.86772	0.0668563	0.46132	6.84084	22.27349	1.23299	0.37869	1807.22324	61213.028	236.427	2578.603
1450.0	0.33843	0.66157	6.99808	7.723	-1.32856	23.64233	32.18582	1.74452	0.57322	0.58251	86.09258	0.20096	0.4493	6.8423	49.59028	1.22916	0.1696	1806.2731	60214.436	199.718	3361.155
1445.0	0.40468	0.59532	7.01251	7.70755	-1.52597	23.20847	32.25469	1.73574	0.57612	1.21108	83.02074	0.42074	0.43923	6.84404	95.04139	1.22528	0.0882338	1805.43082	59354.709	171.945	4005.399
1440.0	0.46051	0.53949	7.02513	7.69417	-1.69687	22.84123	32.30443	1.72803	0.57869	2.06307	80.49696	0.72101	0.43067	6.84626	159.08623	1.22132	0.0525593	1804.6829	58602.368	150.468	4542.806
1435.0	0.50811	0.49189	7.03628	7.68257	-1.84513	22.53112	32.33918	1.72113	0.58101	3.10317	78.41064	1.09011	0.42333	6.84935	240.97503	1.2172	0.0345972	1804.01564	57934.609	133.552	4996.177
1430.0	0.54913	0.45087	7.04631	7.67221	-1.97738	22.26116	32.36143	1.71492	0.58312	4.29336	76.67401	1.515	0.41695	6.85258	339.57702	1.21307	0.0244794	1803.42529	57334.319	120.058	5382.621
1425.0	0.58478	0.41522	7.05539	7.66293	-2.09598	22.02557	32.37347	1.70925	0.58505	5.5968	75.22448	1.98276	0.41136	6.85624	453.64577	1.20886	0.0182703	1802.9036	56788.802	109.103	5714.831
1420.0	0.61598	0.38402	7.06367	7.65453	-2.20338	21.81813	32.37688	1.70403	0.58684	6.98062	74.01363	2.48167	0.40643	6.86027	581.99385	1.20459	0.0141992	1802.44508	56288.428	100.075	6002.433
1415.0	0.64348	0.35652	7.07129	7.64689	-2.30088	21.6357	32.37328	1.69919	0.58852	8.41812	73.00352	3.00205	0.40206	6.86472	723.71278	1.20026	0.011385	1802.0417	55825.518	92.582	6253.1
1410.0	0.66786	0.33214	7.07834	7.6399	-2.39023	21.47386	32.36371	1.69466	0.59009	9.88839	72.16253	3.53623	0.39815	6.86954	878.16008	1.19586	0.00935483	1801.68954	55393.992	86.3052	6472.913
1405.0	0.68958	0.31042	7.08492	7.63339	-2.47346	21.3273	32.34884	1.6904	0.59158	11.37393	71.46558	4.07773	0.39464	6.87438	1044.78877	1.19147	0.00783951	1801.38864	54988.98	81.0024	6666.731
1400.0	0.70903	0.29097	7.09106	7.62737	-2.55031	21.19697	32.32967	1.68636	0.59299	12.86168	70.89316	4.62162	0.39147	6.87978	1223.38463	1.18699	0.00667511	1801.12906	54606.539	76.4882	6838.497
1396.14	0.72416	0.27584	7.09597	7.62288	-2.60764	21.10109	32.31405	1.68329	0.59407	14.12341	70.45866	5.08405	0.38899	6.8842	1380.67116	1.18349	0.00590105	1800.95638	54312.34	 	6970.522
1396.14	0.72416	0.27584	7.09597	7.62288	-2.60764	21.10109	32.31405	1.68329	0.59407	14.12341	70.45866	5.08405	0.38899	6.8842	1380.67116	1.18349	0.00590105	1800.95638	54312.342	 	6970.521
1395.0	0.72988	0.27012	7.09767	7.62109	-2.63057	21.05642	32.31368	1.68216	0.59447	14.63198	70.42771	5.27025	0.38817	6.88263	1445.91295	1.18295	0.00563092	1800.76548	54202.044	80.899	7032.831
1390.0	0.75328	0.24672	7.10482	7.6136	-2.72629	20.87271	32.30815	1.6774	0.59616	16.88896	70.3465	6.09809	0.38477	6.87548	1746.25743	1.18063	0.00464847	1799.97492	53739.201	92.5686	7286.026
1385.0	0.77407	0.22593	7.11146	7.60671	-2.81423	20.70894	32.29655	1.67296	0.59774	19.15853	70.34381	6.93284	0.38172	6.86845	2068.78856	1.17829	0.00391196	1799.24027	53307.715	86.2972	7508.369
1380.0	0.79261	0.20739	7.1177	7.60035	-2.89555	20.56213	32.27984	1.66878	0.59924	21.42293	70.40596	7.76775	0.37897	6.86128	2413.24986	1.17596	0.00334346	1798.55766	52902.98	80.947	7704.467
1375.0	0.80921	0.19079	7.12358	7.59445	-2.97093	20.43057	32.25875	1.66482	0.60067	23.66628	70.52281	8.59676	0.37646	6.85423	2779.56597	1.17361	0.00289405	1797.92205	52521.218	76.3524	7878.092
1370.0	0.82414	0.17586	7.12914	7.58894	-3.04138	20.3117	32.23376	1.66105	0.60203	25.87633	70.68593	9.41515	0.37419	6.84728	3167.97536	1.17124	0.00253152	1797.33186	52159.308	72.382	8032.362
1365.0	0.83761	0.16239	7.13445	7.58375	-3.10759	20.2037	32.20544	1.65746	0.60333	28.0438	70.889	10.21928	0.3721	6.84023	3579.00038	1.16888	0.00223398	1796.78471	51814.651	68.9314	8169.873
1360.0	0.84979	0.15021	7.13951	7.57887	-3.17002	20.10541	32.17415	1.654	0.60459	30.1632	71.12595	11.00695	0.37019	6.83326	4013.6943	1.1665	0.00198595	1796.27717	51485.071	65.916	8292.798
1355.0	0.86084	0.13916	7.14437	7.57423	-3.22921	20.01546	32.14028	1.65068	0.60581	32.23003	71.39242	11.77631	0.36843	6.82621	4473.16745	1.16413	0.0017765	1795.80803	51168.73	63.2682	8402.972
1350.0	0.87091	0.12909	7.14904	7.56982	-3.28562	19.93264	32.10404	1.64747	0.60699	34.24065	71.68476	12.52586	0.3668	6.81925	4958.55801	1.16174	0.00159768	1795.37579	50864.069	60.9322	8501.949
1345.0	0.88009	0.11991	7.15354	7.56561	-3.33936	19.85671	32.06577	1.64435	0.60814	36.19276	72.00002	13.2546	0.36529	6.81246	5471.34102	1.15932	0.00144348	1794.97535	50569.758	58.8622	8591.057
1340.0	0.88847	0.11153	7.1579	7.56159	-3.39072	19.78691	32.02571	1.64132	0.60927	38.08673	72.3356	13.96252	0.36389	6.80565	6013.37562	1.15689	0.00130931	1794.6044	50284.657	57.0202	8671.433
1335.0	0.89615	0.10385	7.16212	7.55771	-3.44033	19.72159	31.98391	1.63837	0.61036	39.92301	72.68852	14.64972	0.36259	6.79899	6586.50753	1.15443	0.00119168	1794.26759	50007.782	55.375	8744.058
1331.0	0.90192	0.098079	7.16545	7.55471	-3.47863	19.67296	31.94952	1.63605	0.61123	41.36708	72.98238	15.19067	0.36159	6.79393	7071.81533	1.15242	0.00110713	1794.01252	49790.754	 	8797.912
1330.0	0.90358	0.0964245	7.16644	7.55382	-3.49004	19.65545	31.94102	1.63547	0.61144	41.78259	73.05351	15.34641	0.36132	6.79244	7205.76665	1.15195	0.00108588	1794.24095	49733.221	54.9122	8814.839
1325.0	0.91143	0.0885711	7.17127	7.54952	-3.54495	19.57393	31.89753	1.63259	0.61252	43.82597	73.4217	16.11281	0.35997	6.7851	7900.1347	1.1496	9.87347E-4	1795.37459	49450.272	56.5898	8894.478
1320.0	0.91856	0.0814417	7.17588	7.54545	-3.59693	19.50021	31.85241	1.62979	0.61358	45.78505	73.80633	16.84846	0.35873	6.77781	8631.9561	1.14724	9.00812E-4	1796.51665	49176.372	54.78	8965.532
1315.0	0.92504	0.0749554	7.18029	7.5416	-3.64613	19.43392	31.80595	1.62705	0.61461	47.66559	74.20571	17.55537	0.35758	6.77055	9404.54072	1.14487	8.24215E-4	1797.6607	48910.514	53.1716	9029.008
1310.0	0.93095	0.0690463	7.18453	7.53796	-3.69269	19.37479	31.75831	1.62436	0.61563	49.46979	74.61844	18.23425	0.35651	6.76394	10220.74413	1.14238	7.56008E-4	1798.79937	48651.823	51.7382	9085.775
1305.0	0.93635	0.0636524	7.18862	7.53446	-3.73732	19.32078	31.70953	1.62172	0.61663	51.20154	75.04219	18.88649	0.35551	6.75748	11083.77866	1.13986	6.9494E-4	1799.94599	48399.538	50.457	9136.593
1300.0	0.94128	0.0587219	7.19257	7.53112	-3.77998	19.27206	31.65981	1.61912	0.61762	52.86433	75.47627	19.51329	0.35457	6.75141	11997.25642	1.13727	6.39993E-4	1801.09064	48152.993	49.309	9182.125
1295.0	0.94579	0.05421	7.1964	7.52792	-3.82087	19.22819	31.60923	1.61656	0.6186	54.46167	75.91966	20.11589	0.3537	6.74642	12964.97366	1.13449	5.90341E-4	1802.23026	47911.605	48.2776	9222.949
1290.0	0.94993	0.0500729	7.20011	7.52484	-3.86027	19.18835	31.55789	1.61403	0.61957	55.99774	76.3711	20.69581	0.35288	6.74208	13991.19077	1.1316	5.45296E-4	1803.36797	47674.856	47.3498	9259.583
1285.0	0.95373	0.0462749	7.20372	7.52185	-3.89847	19.15172	31.50584	1.61152	0.62053	57.47682	76.82967	21.25462	0.3521	6.73854	15080.50571	1.12857	5.0429E-4	1804.50974	47442.287	46.5138	9292.483
1280.0	0.95722	0.0427823	7.20724	7.51896	-3.93541	19.11852	31.4532	1.60904	0.62149	58.90255	77.29502	21.79362	0.35137	6.73641	16237.93393	1.12531	4.66841E-4	1805.64428	47213.488	45.7598	9322.053
1275.0	0.96044	0.0395643	7.21067	7.51616	-3.97118	19.08855	31.40007	1.60657	0.62244	60.27835	77.76633	22.31406	0.35068	6.73547	17468.88245	1.12184	4.32548E-4	1806.76741	46988.095	45.0786	9348.655
1273.7	0.96107	0.038933	7.21148	7.51544	-3.98041	19.08091	31.38616	1.60593	0.62269	60.58091	77.8897	22.42852	0.35053	6.73548	17788.33927	1.1209	4.24424E-4	1807.06126	46931.46	 	9353.706
1270.0	0.97272	0.0272769	7.21636	7.51064	-4.04175	18.95438	31.34464	1.60421	0.62336	64.53763	78.30123	23.93353	0.34827	6.82637	19598.39352	1.10333	3.84304E-4	1805.6427	46618.725	73.874	9519.674
1265.0	0.98216	0.0178376	7.22147	7.50552	-4.10713	18.83467	31.2893	1.60185	0.62428	68.11078	78.8401	25.29479	0.34634	6.96027	21706.1521	1.0786	3.45862E-4	1803.62679	46288.521	66.0408	9651.96
1260.0	0.98789	0.0121065	7.22571	7.5012	-4.16231	18.74475	31.23418	1.59946	0.62521	70.57986	79.3676	26.23632	0.34508	7.10323	23649.12613	1.05345	3.16414E-4	1801.54913	46012.406	55.223	9730.588
1255.0	0.99168	0.00832178	7.22948	7.4973	-4.21219	18.67009	31.1792	1.59705	0.62615	72.44743	79.88919	26.94878	0.34417	7.25336	25552.61119	1.02829	2.91889E-4	1799.43344	45764.496	49.582	9781.44
1250.0	0.99433	0.00566994	7.23298	7.49364	-4.25895	18.60433	31.12417	1.59464	0.6271	73.95677	80.4074	27.52468	0.34346	7.40985	27481.9005	1.00328	2.7051E-4	1797.29363	45532.959	46.3074	9816.346
1245.0	0.9963	0.00369665	7.23633	7.49012	-4.30382	18.54377	31.06929	1.59221	0.62806	75.24928	80.92383	28.01788	0.34288	7.57143	29480.43143	0.97864	2.51343E-4	1795.14737	45311.624	44.267	9841.474
1240.0	0.99782	0.00217726	7.23957	7.48671	-4.34739	18.48669	31.01451	1.58977	0.62902	76.39592	81.43919	28.45542	0.34238	7.73832	31574.48701	0.95438	2.33901E-4	1792.9924	45097.167	42.8914	9860.148
1235.0	0.99903	9.74015E-4	7.24274	7.48338	-4.39001	18.43206	30.95989	1.58731	0.63	77.44044	81.95409	28.854	0.34194	7.90944	33784.68048	0.93065	2.17877E-4	1790.84779	44887.573	41.9188	9874.383
1230.0	1.0	0.0	7.24585	7.4801	-4.43191	18.37922	30.90561	1.58483	0.63098	78.41063	82.46885	29.22422	0.34153	 	36128.68992	 	2.03066E-4	 	44681.557	41.2032	9885.463
1225.0	1.0	0.0	7.24814	7.47774	-4.46206	18.36232	30.84951	1.58243	0.63194	78.99821	82.97899	29.44774	0.34133	 	38486.36145	 	1.89992E-4	 	44451.361	46.0392	 
1220.0	1.0	0.0	7.25042	7.47538	-4.49217	18.34543	30.7934	1.58002	0.6329	79.58778	83.4899	29.67207	0.34112	 	41015.95791	 	1.77679E-4	 	44259.87	38.2982	 
1215.0	1.0	0.0	7.2527	7.47303	-4.52223	18.32854	30.7373	1.57761	0.63387	80.17931	84.00154	29.89719	0.34092	 	43731.2859	 	1.66089E-4	 	44068.573	38.2594	 
1210.0	1.0	0.0	7.25498	7.47068	-4.55225	18.31166	30.6812	1.57518	0.63485	80.77276	84.51387	30.1231	0.34071	 	46647.36006	 	1.55183E-4	 	43877.478	38.219	 
1205.0	1.0	0.0	7.25726	7.46833	-4.58222	18.29479	30.6251	1.57275	0.63583	81.36809	85.02684	30.34979	0.34051	 	49780.51726	 	1.44926E-4	 	43686.585	38.1786	 
1200.0	1.0	0.0	7.25954	7.46599	-4.61214	18.27792	30.569	1.5703	0.63682	81.96527	85.54041	30.57723	0.3403	 	53148.54243	 	1.35283E-4	 	43495.892	38.1386	 
1195.0	1.0	0.0	7.26181	7.46365	-4.64201	18.26106	30.5129	1.56785	0.63782	82.56425	86.05456	30.80542	0.34009	 	56770.80719	 	1.26221E-4	 	43305.395	38.0994	 
1190.0	1.0	0.0	7.26409	7.46132	-4.67184	18.2442	30.4568	1.56539	0.63882	83.16502	86.56922	31.03433	0.33989	 	60668.42278	 	1.1771E-4	 	43115.093	38.0604	 
1185.0	1.0	0.0	7.26636	7.45899	-4.70161	18.22736	30.4007	1.56292	0.63983	83.76751	87.08437	31.26397	0.33968	 	64864.40876	 	1.09719E-4	 	42924.985	38.0216	 
1180.0	1.0	0.0	7.26862	7.45666	-4.73135	18.21051	30.3446	1.56044	0.64085	84.37171	87.59996	31.49431	0.33948	 	69383.87927	 	1.02221E-4	 	42735.067	37.9836	 
1175.0	1.0	0.0	7.27089	7.45434	-4.76103	18.19367	30.2885	1.55795	0.64187	84.97758	88.11596	31.72535	0.33927	 	74254.24883	 	9.51873E-5	 	42545.337	37.946	 
1170.0	1.0	0.0	7.27315	7.45202	-4.79067	18.17684	30.2324	1.55545	0.6429	85.58507	88.63233	31.95706	0.33906	 	79505.45978	 	8.85934E-5	 	42355.793	37.9088	 
1165.0	1.0	0.0	7.27541	7.4497	-4.82026	18.16002	30.1763	1.55294	0.64394	86.19416	89.14902	32.18944	0.33886	 	85170.23386	 	8.24144E-5	 	42166.434	37.8718	 
1160.0	1.0	0.0	7.27767	7.44739	-4.8498	18.1432	30.1202	1.55043	0.64498	86.8048	89.66601	32.42248	0.33865	 	91284.35069	 	7.6627E-5	 	41977.255	37.8358	 
1155.0	1.0	0.0	7.27993	7.44508	-4.8793	18.12639	30.0641	1.5479	0.64604	87.41697	90.18325	32.65615	0.33845	 	97886.95609	 	7.12091E-5	 	41788.256	37.7998	 
1150.0	1.0	0.0	7.28218	7.44278	-4.90875	18.10958	30.008	1.54537	0.6471	88.03062	90.7007	32.89045	0.33824	 	105020.9038	 	6.61396E-5	 	41599.433	37.7646	 
1145.0	1.0	0.0	7.28444	7.44048	-4.93815	18.09278	29.9519	1.54282	0.64816	88.64573	91.21834	33.12537	0.33803	 	112733.1343	 	6.13984E-5	 	41410.784	37.7298	 
1140.0	1.0	0.0	7.28669	7.43818	-4.9675	18.07598	29.89581	1.54027	0.64924	89.26225	91.73612	33.36089	0.33783	 	121075.0953	 	5.69666E-5	 	41222.306	37.6956	 
1135.0	1.0	0.0	7.28893	7.43588	-4.99681	18.05919	29.83971	1.5377	0.65032	89.88016	92.254	33.597	0.33762	 	130103.2083	 	5.2826E-5	 	41033.997	37.6618	 
1130.0	1.0	0.0	7.29118	7.43359	-5.02607	18.04241	29.78361	1.53513	0.65141	90.49941	92.77195	33.83368	0.33742	 	139879.3874	 	4.89595E-5	 	40845.854	37.6286	 
1125.0	1.0	0.0	7.29342	7.43131	-5.05529	18.02563	29.72752	1.53254	0.65251	91.11998	93.28994	34.07093	0.33721	 	150471.6154	 	4.53509E-5	 	40657.874	37.596	 
1120.0	1.0	0.0	7.29566	7.42902	-5.08445	18.00886	29.67143	1.52995	0.65362	91.74182	93.80793	34.30873	0.337	 	161954.5855	 	4.19847E-5	 	40470.054	37.564	 
1115.0	1.0	0.0	7.2979	7.42674	-5.11357	17.9921	29.61533	1.52735	0.65473	92.36491	94.32588	34.54707	0.3368	 	174410.4147	 	3.88464E-5	 	40282.391	37.5326	 
1110.0	1.0	0.0	7.30014	7.42447	-5.14265	17.97534	29.55925	1.52473	0.65585	92.98921	94.84376	34.78593	0.33659	 	187929.4395	 	3.59221E-5	 	40094.882	37.5018	 
1105.0	1.0	0.0	7.30237	7.4222	-5.17167	17.95858	29.50316	1.52211	0.65698	93.61469	95.36154	35.02531	0.33639	 	202611.1023	 	3.31986E-5	 	39907.525	37.4714	 
1100.0	1.0	0.0	7.30461	7.41993	-5.20065	17.94184	29.44707	1.51947	0.65812	94.2413	95.87918	35.26519	0.33618	 	218564.9399	 	3.06637E-5	 	39720.315	37.442	 
1095.0	1.0	0.0	7.30684	7.41766	-5.22959	17.9251	29.39099	1.51683	0.65927	94.86903	96.39664	35.50555	0.33597	 	235911.6879	 	2.83055E-5	 	39533.25	37.413	 
1090.0	1.0	0.0	7.30906	7.4154	-5.25847	17.90836	29.33491	1.51418	0.66042	95.49783	96.9139	35.7464	0.33577	 	254784.5138	 	2.6113E-5	 	39346.327	37.3846	 
1085.0	1.0	0.0	7.31129	7.41315	-5.28731	17.89163	29.27884	1.51151	0.66159	96.12767	97.43092	35.98771	0.33556	 	275330.3951	 	2.40758E-5	 	39159.541	37.3572	 
1080.0	1.0	0.0	7.31351	7.41089	-5.31611	17.87491	29.22277	1.50884	0.66276	96.75852	97.94767	36.22947	0.33536	 	297711.6621	 	2.21838E-5	 	38972.889	37.3304	 
1075.0	1.0	0.0	7.31573	7.40864	-5.34485	17.85819	29.1667	1.50615	0.66394	97.39035	98.46411	36.47166	0.33515	 	322107.7238	 	2.04279E-5	 	38786.369	37.304	 
1070.0	1.0	0.0	7.31795	7.4064	-5.37355	17.84148	29.11065	1.50345	0.66513	98.02311	98.98022	36.71429	0.33494	 	348717.0028	 	1.87991E-5	 	38599.975	37.2788	 
1065.0	1.0	0.0	7.32017	7.40415	-5.40221	17.82478	29.05459	1.50075	0.66633	98.65679	99.49595	36.95733	0.33474	 	377759.1037	 	1.72893E-5	 	38413.704	37.2542	 
1060.0	1.0	0.0	7.32238	7.40191	-5.43081	17.80808	28.99855	1.49803	0.66754	99.29134	100.01129	37.20078	0.33453	 	409477.2463	 	1.58904E-5	 	38227.553	37.2302	 
1055.0	1.0	0.0	7.3246	7.39968	-5.45937	17.79139	28.94251	1.4953	0.66876	99.92673	100.52619	37.44461	0.33433	 	444140.9989	 	1.45953E-5	 	38041.517	37.2072	 
1050.0	1.0	0.0	7.32681	7.39745	-5.48789	17.7747	28.88648	1.49256	0.66999	100.56293	101.04063	37.68882	0.33412	 	482049.3481	 	1.33969E-5	 	37855.592	37.185	 
1045.0	1.0	0.0	7.32901	7.39522	-5.51636	17.75802	28.83046	1.48981	0.67123	101.1999	101.55457	37.9334	0.33392	 	523534.1533	 	1.22887E-5	 	37669.774	37.1636	 
1040.0	1.0	0.0	7.33122	7.39299	-5.54478	17.74134	28.77445	1.48705	0.67247	101.83762	102.06798	38.17834	0.33371	 	568964.033	 	1.12646E-5	 	37484.059	37.143	 
1035.0	1.0	0.0	7.33342	7.39077	-5.57315	17.72468	28.71845	1.48427	0.67373	102.47605	102.58084	38.42361	0.3335	 	618748.7438	 	1.03188E-5	 	37298.441	37.1236	 
1030.0	1.0	0.0	7.33562	7.38856	-5.60148	17.70801	28.66247	1.48149	0.675	103.11516	103.09311	38.66922	0.3333	 	673344.117	 	9.44592E-6	 	37112.917	37.1048	 
1025.0	1.0	0.0	7.33782	7.38634	-5.62976	17.69136	28.6065	1.47869	0.67627	103.75492	103.60476	38.91515	0.33309	 	733257.6275	 	8.64082E-6	 	36927.481	37.0872	 
1020.0	1.0	0.0	7.34002	7.38413	-5.65799	17.67471	28.55055	1.47588	0.67756	104.39529	104.11577	39.16138	0.33289	 	799054.6837	 	7.89876E-6	 	36742.129	37.0704	 
1015.0	1.0	0.0	7.34221	7.38193	-5.68618	17.65806	28.49461	1.47306	0.67886	105.03625	104.6261	39.4079	0.33268	 	871365.7351	 	7.21527E-6	 	36556.855	37.0548	 
1010.0	1.0	0.0	7.3444	7.37972	-5.71432	17.64142	28.4387	1.47023	0.68017	105.67775	105.13572	39.65471	0.33247	 	950894.312	 	6.58615E-6	 	36371.654	37.0402	 
1005.0	1.0	0.0	7.34659	7.37753	-5.74242	17.62479	28.3828	1.46739	0.68148	106.31977	105.64461	39.90179	0.33227	 	1038426.128	 	6.00749E-6	 	36186.521	37.0266	 
1000.0	1.0	0.0	7.34878	7.37533	-5.77047	17.60816	28.32694	1.46453	0.68281	106.96228	106.15273	40.14913	0.33206	 	1134839.392	 	5.4756E-6	 	36001.451	37.014	 
995.0	1.0	0.0	7.35096	7.37314	-5.79847	17.59154	28.27109	1.46166	0.68415	107.60525	106.66006	40.39671	0.33186	 	1241116.503	 	4.98706E-6	 	35816.436	37.003	 
990.0	1.0	0.0	7.35315	7.37095	-5.82643	17.57493	28.21528	1.45878	0.68551	108.24863	107.16657	40.64453	0.33165	 	1358357.33	 	4.53866E-6	 	35631.472	36.9928	 
985.0	1.0	0.0	7.35533	7.36877	-5.85434	17.55832	28.15949	1.45588	0.68687	108.89241	107.67223	40.89258	0.33144	 	1487794.287	 	4.1274E-6	 	35446.553	36.9838	 
980.0	1.0	0.0	7.3575	7.36658	-5.88221	17.54172	28.10374	1.45297	0.68825	109.53654	108.17701	41.14083	0.33124	 	1630809.486	 	3.75048E-6	 	35261.671	36.9764	 
975.0	1.0	0.0	7.35968	7.36441	-5.91002	17.52512	28.04803	1.45005	0.68963	110.18101	108.68089	41.38929	0.33103	 	1788954.257	 	3.40529E-6	 	35076.82	36.9702	 
970.0	1.0	0.0	7.36185	7.36223	-5.9378	17.50853	27.99236	1.44711	0.69103	110.82577	109.18383	41.63793	0.33083	 	1963971.379	 	3.08941E-6	 	34891.994	36.9652	 
