T (C)	Fraction solid (wt)-TOTAL	Fraction liquid (wt)-LIQUID	Density (g/(cm)^3)-TOTAL	Molar volume (cm^3)-TOTAL	Volume change (%)-  	Average expansion coeff. (10e-6 1/K)-  	Thermal conductivity (W/(m*K))-TOTAL	Electrical resistivity (10e-6 Ohm*m)-TOTAL	Electrical conductivity (10e6 1/(Ohm*m))-TOTAL	Young's modulus (GPa)-TOTAL	Bulk modulus (GPa)-TOTAL	Shear modulus(GPa)-TOTAL	Poisson's ratio-TOTAL	Liquid viscosity (mPa s)-  	Total viscosity (mPa s)-  	Liquid diffusivity (10e-9 (m^2)/s)-  	Total diffusivity (10e-9 (m^2)/s)-  	Surface Tension (mN/m)-  	Enthalpy (J/mole)-TOTAL	Specific heat (J/(mole K))-TOTAL	Latent heat (J/mole)-TOTAL
1500.0	0.0	1.0	6.86536	7.94678	0.0	25.44424	30.50627	1.89397	0.52799	0.0	103.49371	0.0	0.4978	6.65362	6.65362	1.30069	1.30069	1767.00932	62719.615	 	0.0
1495.0	0.0	1.0	6.86919	7.94234	-0.0558354	25.38992	30.43605	1.89299	0.52826	0.0	103.68065	0.0	0.4978	6.71113	6.71113	1.28591	1.28591	1768.74321	62500.476	43.8278	0.0
1490.0	0.0	1.0	6.87302	7.93791	-0.11152	25.33561	30.36582	1.892	0.52854	0.0	103.86759	0.0	0.4978	6.76947	6.76947	1.27122	1.27122	1770.47285	62281.863	43.7226	0.0
1485.0	0.0	1.0	6.87685	7.9335	-0.16705	25.28131	30.29559	1.89101	0.52882	0.0	104.05454	0.0	0.4978	6.82865	6.82865	1.25663	1.25663	1772.19819	62063.775	43.6176	0.0
1480.0	0.0	1.0	6.88066	7.9291	-0.22244	25.22703	30.22536	1.89002	0.5291	0.0	104.24148	0.0	0.4978	6.88869	6.88869	1.24214	1.24214	1773.91919	61846.207	43.5136	0.0
1475.0	0.0	1.0	6.88447	7.92471	-0.27767	25.17275	30.15514	1.88901	0.52938	0.0	104.42842	0.0	0.4978	6.94961	6.94961	1.22774	1.22774	1775.63579	61629.156	43.4102	0.0
1470.0	0.0	1.0	6.88828	7.92033	-0.33275	25.11848	30.08491	1.88801	0.52966	0.0	104.61536	0.0	0.4978	7.01142	7.01142	1.21343	1.21343	1777.34794	61412.619	43.3074	0.0
1465.0	0.0	1.0	6.89208	7.91597	-0.38768	25.06423	30.01468	1.887	0.52994	0.0	104.80231	0.0	0.4978	7.07414	7.07414	1.19922	1.19922	1779.05558	61196.591	43.2056	0.0
1460.0	0.0	1.0	6.89587	7.91162	-0.44246	25.00999	29.94445	1.88598	0.53023	0.0	104.98925	0.0	0.4978	7.13779	7.13779	1.18511	1.18511	1780.75867	60981.07	43.1042	0.0
1455.0	0.0	1.0	6.89966	7.90727	-0.49709	24.95575	29.87423	1.88496	0.53051	0.0	105.17619	0.0	0.4978	7.20238	7.20238	1.17109	1.17109	1782.45714	60766.052	43.0036	0.0
1451.8	0.0	1.0	6.90207	7.90451	-0.53192	24.92111	29.82935	1.88431	0.5307	0.0	105.29565	0.0	0.4978	7.24416	7.24416	1.16219	1.16219	1783.54008	60628.912	42.9213	0.0030
1450.0	0.0750103	0.92499	6.91572	7.88889	-0.7284	24.44132	30.08272	1.86648	0.53577	0.00168075	102.40276	5.65241E-4	0.48675	7.2503	8.09473	1.15999	1.03898	1782.61913	59870.657	420.121	680.886
1445.0	0.25023	0.74977	6.94852	7.85173	-1.19602	23.30609	30.68464	1.82456	0.54808	0.21345	95.6737	0.0730628	0.46074	7.2682	22.77145	1.15377	0.36826	1780.18674	58068.465	360.438	2269.1
1440.0	0.38262	0.61738	6.97442	7.82272	-1.56115	22.43146	31.14775	1.7922	0.55797	1.1919	90.6581	0.4136	0.44087	7.28725	84.72576	1.14741	0.0986885	1777.89678	56661.106	281.472	3463.004
1435.0	0.48528	0.51472	6.99543	7.79946	-1.85376	21.74137	31.51154	1.76634	0.56614	3.14143	86.84756	1.10202	0.42531	7.30766	210.85273	1.14087	0.0395397	1775.73033	55528.977	226.426	4382.197
1430.0	0.56656	0.43344	7.01297	7.78026	-2.09541	21.18088	31.79996	1.7452	0.573	5.93229	83.91216	2.09935	0.41289	7.32878	398.90235	1.13425	0.0208388	1773.67602	54595.207	186.754	5103.55
1425.0	0.63205	0.36795	7.02788	7.76412	-2.29846	20.71865	32.02997	1.72758	0.57885	9.32644	81.62807	3.32423	0.4028	7.35086	639.32876	1.12752	0.012964	1771.71927	53807.891	157.463	5678.958
1420.0	0.68568	0.31432	7.04081	7.75024	-2.47317	20.32843	32.21362	1.71267	0.58388	13.09584	79.83667	4.69564	0.39447	7.37376	921.87154	1.12071	0.0089642	1769.85183	53130.698	135.439	6144.754
1415.0	0.73008	0.26992	7.05218	7.73815	-2.62533	19.99558	32.35991	1.69989	0.58827	17.04948	78.43039	6.1439	0.38751	7.39749	1237.28456	1.11382	0.00665929	1768.06319	52538.671	118.405	6525.889
1410.0	0.76728	0.23272	7.06232	7.72747	-2.75964	19.70812	32.47603	1.6888	0.59214	21.05085	77.32755	7.61805	0.38164	7.42196	1578.73263	1.10685	0.00520356	1766.3446	52013.265	105.081	6840.905
1405.0	0.79872	0.20128	7.07145	7.71796	-2.87932	19.45791	32.56751	1.67905	0.59557	25.00663	76.46719	9.0825	0.37664	7.44746	1941.42806	1.09979	0.00421887	1764.68718	51540.716	94.5098	7103.559
1400.0	0.82557	0.17443	7.07981	7.70934	-2.98781	19.23604	32.63872	1.6704	0.59866	28.8584	75.80239	10.51438	0.37233	7.47337	2322.30051	1.09271	0.00351644	1763.08759	51110.403	86.0626	7324.472
1395.0	0.84866	0.15134	7.08749	7.70146	-3.08694	19.03789	32.69301	1.66264	0.60145	32.5688	75.29763	11.89865	0.36859	7.50018	2719.41184	1.08555	0.00299397	1761.53889	50714.569	79.1668	7511.398
1390.0	0.86859	0.13141	7.09461	7.69424	-3.17782	18.86072	32.73292	1.65563	0.604	36.10652	74.92807	13.22258	0.36534	7.52793	3130.90491	1.07831	0.00259268	1760.03435	50347.369	73.44	7670.175
1385.0	0.88589	0.11411	7.10125	7.68754	-3.26217	18.70005	32.76074	1.64926	0.60633	39.4645	74.67082	14.48262	0.36248	7.55597	3556.53817	1.07108	0.00227553	1758.57264	50003.937	68.6864	7805.669
1380.0	0.90099	0.0990118	7.10749	7.68128	-3.34089	18.55359	32.77813	1.64341	0.60849	42.63716	74.50866	15.67591	0.35996	7.58482	3996.11034	1.06378	0.00201912	1757.14901	49680.401	64.7072	7921.747
1378.16	0.90649	0.0935072	7.10985	7.67894	-3.37037	18.49809	32.7843	1.64127	0.60929	43.84917	74.45404	16.13244	0.35904	7.59558	4169.88719	1.06109	0.00193281	1756.62905	49562.71	 	7963.019
1375.0	0.91864	0.08136	7.11507	7.67383	-3.43474	18.36449	32.80728	1.63698	0.61088	46.57736	74.2646	17.16141	0.35704	7.61759	4537.55154	1.05601	0.00177281	1756.2926	49335.485	68.9832	8059.683
1370.0	0.93535	0.0646548	7.12261	7.66649	-3.527	18.17837	32.83186	1.6308	0.6132	50.60207	74.06978	18.68256	0.35426	7.65324	5125.962	1.0479	0.00156455	1755.7517	48999.175	67.262	8189.489
1365.0	0.9494	0.0506017	7.1294	7.65995	-3.60937	18.01822	32.8439	1.62524	0.61529	54.26769	73.98465	20.07104	0.35189	7.6894	5721.21859	1.0398	0.0013975	1755.20649	48687.564	62.3222	8295.067
1360.0	0.9613	0.0387017	7.13558	7.65404	-3.68374	17.8791	32.84564	1.62019	0.61721	57.6058	73.98881	21.33779	0.34985	7.72588	6325.41552	1.03173	0.00126015	1754.65767	48395.707	58.3714	8381.361
1357.44	0.96922	0.0307812	7.13949	7.65045	-3.72885	17.78787	32.8553	1.61718	0.61836	59.85502	73.93016	22.19275	0.34853	7.74483	6709.06273	1.02759	0.00118623	1754.37317	48237.276	 	8434.85
1355.0	0.97351	0.0264875	7.14197	7.64801	-3.75959	17.73481	32.84422	1.6153	0.61908	61.22233	74.03218	22.7121	0.34779	7.77499	7010.53885	1.02207	0.00113352	1753.95255	48103.006	58.5402	8468.966
1350.0	0.98071	0.0192913	7.14658	7.64345	-3.81701	17.64104	32.8156	1.61174	0.62045	63.66149	74.29201	23.63922	0.34652	7.83802	7617.36637	1.01074	0.00104002	1753.14055	47842.764	52.0484	8524.576
1345.0	0.98617	0.0138303	7.15067	7.63937	-3.86833	17.56366	32.78052	1.6085	0.6217	65.6857	74.60435	24.40918	0.34551	7.90374	8215.20558	0.99925	9.61362E-4	1752.3656	47598.655	48.8218	8564.513
1340.0	0.99024	0.00976227	7.15431	7.63569	-3.91468	17.49972	32.74012	1.60551	0.62286	67.35841	74.95932	25.04569	0.34471	7.97207	8808.79032	0.98762	8.9381E-4	1751.61884	47366.969	46.3372	8592.486
1335.0	0.99318	0.00681638	7.1576	7.63232	-3.957	17.44671	32.69515	1.60273	0.62393	68.73455	75.34906	25.56939	0.34408	8.04226	9402.584	0.97597	8.34768E-4	1750.90771	47144.861	44.4216	8611.335
1330.0	0.99474	0.00525911	7.16037	7.62939	-3.9939	17.40869	32.6441	1.60025	0.6249	69.71751	75.78291	25.94311	0.34366	8.11498	9981.48563	0.96421	7.83909E-4	1750.22106	46933.811	42.21	8619.58
1325.0	0.99611	0.00388825	7.16311	7.6265	-4.03022	17.37203	32.59256	1.59778	0.62587	70.65537	76.2228	26.29975	0.34327	8.1902	10590.47196	0.95238	7.36527E-4	1749.55646	46724.86	41.7902	8626.176
1320.36	0.99719	0.00280655	7.16559	7.62388	-4.06324	17.33975	32.54417	1.59551	0.62676	71.47625	76.63664	26.61194	0.34294	8.26179	11182.6236	0.94138	6.955E-4	1748.95962	46532.905	 	8630.674
1320.0	0.99728	0.00272462	7.16578	7.62368	-4.0658	17.33721	32.54052	1.59533	0.62683	71.53922	76.6682	26.63591	0.34291	8.26832	11229.472	0.94043	6.92443E-4	1748.86034	46518.233	41.3254	8630.892
1315.0	0.99833	0.0016708	7.16842	7.62086	-4.10125	17.30249	32.48925	1.59283	0.62781	72.39777	77.11226	26.96267	0.34256	8.35929	11902.40771	0.92728	6.51243E-4	1747.56034	46314.35	40.7766	8633.312
1310.0	0.99923	7.73089E-4	7.17101	7.61809	-4.1361	17.26922	32.43739	1.59035	0.62879	73.21509	77.56241	27.27376	0.34223	8.45135	12611.70346	0.91429	6.12682E-4	1746.32373	46112.065	40.457	8634.576
1305.0	1.0	0.0	7.17358	7.61536	-4.1705	17.23703	32.38507	1.58789	0.62977	74.00063	78.01771	27.57277	0.34191	 	13361.00489	 	5.76495E-4	 	45911.031	40.2068	8635.028
1300.0	1.0	0.0	7.17582	7.61298	-4.20041	17.21761	32.3295	1.58558	0.63068	74.53641	78.49046	27.77625	0.34173	 	14111.87253	 	5.44092E-4	 	45669.352	48.3358	 
1295.0	1.0	0.0	7.17805	7.61061	-4.23028	17.19819	32.27393	1.58326	0.63161	75.07508	78.96515	27.98085	0.34154	 	14910.16318	 	5.13324E-4	 	45473.693	39.1318	 
1290.0	1.0	0.0	7.18029	7.60824	-4.26009	17.17876	32.21836	1.58094	0.63254	75.61661	79.44173	28.18658	0.34136	 	15759.18858	 	4.84121E-4	 	45278.3	39.0786	 
1285.0	1.0	0.0	7.18252	7.60587	-4.28985	17.15933	32.16279	1.5786	0.63347	76.16096	79.92016	28.39342	0.34117	 	16662.51322	 	4.5641E-4	 	45083.172	39.0256	 
1280.0	1.0	0.0	7.18475	7.60351	-4.31956	17.1399	32.10723	1.57626	0.63441	76.7081	80.40039	28.60135	0.34099	 	17623.97524	 	4.30127E-4	 	44888.309	38.9726	 
1275.0	1.0	0.0	7.18698	7.60115	-4.34922	17.12047	32.05166	1.57391	0.63536	77.25798	80.88238	28.81037	0.3408	 	18647.70915	 	4.05204E-4	 	44693.707	38.9204	 
1270.0	1.0	0.0	7.1892	7.5988	-4.37882	17.10104	31.99609	1.57155	0.63631	77.81057	81.36608	29.02045	0.34062	 	19738.17067	 	3.81582E-4	 	44499.367	38.868	 
1265.0	1.0	0.0	7.19143	7.59645	-4.40838	17.0816	31.94052	1.56919	0.63727	78.36584	81.85145	29.23159	0.34043	 	20900.16367	 	3.59199E-4	 	44305.288	38.8158	 
1260.0	1.0	0.0	7.19365	7.59411	-4.43788	17.06217	31.88495	1.56681	0.63824	78.92375	82.33845	29.44377	0.34025	 	22138.8697	 	3.37999E-4	 	44111.467	38.7642	 
1255.0	1.0	0.0	7.19586	7.59177	-4.46733	17.04273	31.82938	1.56443	0.63921	79.48425	82.82702	29.65698	0.34006	 	23459.88007	 	3.17927E-4	 	43917.903	38.7128	 
1250.0	1.0	0.0	7.19808	7.58943	-4.49673	17.02329	31.77381	1.56204	0.64019	80.04732	83.31713	29.87121	0.33987	 	24869.23096	 	2.98928E-4	 	43724.596	38.6614	 
1245.0	1.0	0.0	7.20029	7.5871	-4.52607	17.00385	31.71824	1.55964	0.64118	80.61292	83.80874	30.08644	0.33969	 	26373.4417	 	2.80954E-4	 	43531.544	38.6104	 
1240.0	1.0	0.0	7.2025	7.58477	-4.55537	16.98441	31.66267	1.55723	0.64217	81.18101	84.3018	30.30266	0.3395	 	27979.55664	 	2.63954E-4	 	43338.745	38.5598	 
1235.0	1.0	0.0	7.20471	7.58245	-4.58461	16.96496	31.6071	1.55481	0.64316	81.75156	84.79626	30.51985	0.33932	 	29695.19087	 	2.47882E-4	 	43146.2	38.509	 
1230.0	1.0	0.0	7.20691	7.58013	-4.6138	16.94552	31.55153	1.55239	0.64417	82.32452	85.29209	30.73801	0.33913	 	31528.58026	 	2.32694E-4	 	42953.906	38.4588	 
1225.0	1.0	0.0	7.20912	7.57781	-4.64294	16.92607	31.49596	1.54995	0.64518	82.89986	85.78924	30.95712	0.33895	 	33488.63619	 	2.18346E-4	 	42761.862	38.4088	 
1220.0	1.0	0.0	7.21132	7.5755	-4.67203	16.90662	31.44039	1.54751	0.6462	83.47755	86.28767	31.17717	0.33876	 	35585.00547	 	2.04797E-4	 	42570.066	38.3592	 
1215.0	1.0	0.0	7.21351	7.57319	-4.70106	16.88717	31.38482	1.54506	0.64722	84.05755	86.78734	31.39813	0.33858	 	37828.13597	 	1.92008E-4	 	42378.516	38.31	 
1210.0	1.0	0.0	7.21571	7.57089	-4.73004	16.86772	31.32924	1.5426	0.64826	84.63982	87.28821	31.62001	0.33839	 	40229.34855	 	1.7994E-4	 	42187.211	38.261	 
1205.0	1.0	0.0	7.2179	7.56859	-4.75898	16.84826	31.27367	1.54013	0.6493	85.22433	87.79023	31.84279	0.3382	 	42800.91591	 	1.68559E-4	 	41996.148	38.2126	 
1200.0	1.0	0.0	7.22009	7.5663	-4.78785	16.82881	31.2181	1.53765	0.65034	85.81103	88.29336	32.06645	0.33802	 	45556.14907	 	1.57829E-4	 	41805.327	38.1642	 
1195.0	1.0	0.0	7.22228	7.56401	-4.81668	16.80935	31.16253	1.53517	0.6514	86.3999	88.79756	32.29097	0.33783	 	48509.49238	 	1.47717E-4	 	41614.745	38.1164	 
1190.0	1.0	0.0	7.22446	7.56172	-4.84546	16.78989	31.10696	1.53267	0.65246	86.99089	89.3028	32.51636	0.33765	 	51676.62774	 	1.38192E-4	 	41424.401	38.0688	 
1185.0	1.0	0.0	7.22664	7.55944	-4.87418	16.77043	31.05139	1.53017	0.65352	87.58398	89.80902	32.74259	0.33746	 	55074.58916	 	1.29222E-4	 	41234.292	38.0218	 
1180.0	1.0	0.0	7.22882	7.55716	-4.90285	16.75097	30.99582	1.52765	0.6546	88.17911	90.31619	32.96965	0.33728	 	58721.88877	 	1.20781E-4	 	41044.417	37.975	 
1175.0	1.0	0.0	7.231	7.55488	-4.93147	16.73151	30.94025	1.52513	0.65568	88.77627	90.82427	33.19753	0.33709	 	62638.6553	 	1.12839E-4	 	40854.773	37.9288	 
1170.0	1.0	0.0	7.23317	7.55261	-4.96004	16.71204	30.88467	1.5226	0.65677	89.3754	91.33322	33.42621	0.33691	 	66846.78661	 	1.0537E-4	 	40665.359	37.8828	 
1165.0	1.0	0.0	7.23534	7.55035	-4.98855	16.69258	30.8291	1.52006	0.65787	89.97648	91.843	33.65568	0.33672	 	71370.1176	 	9.835E-5	 	40476.173	37.8372	 
1160.0	1.0	0.0	7.23751	7.54809	-5.01701	16.67311	30.77353	1.51751	0.65897	90.57947	92.35357	33.88593	0.33653	 	76234.60522	 	9.17543E-5	 	40287.213	37.792	 
1155.0	1.0	0.0	7.23967	7.54583	-5.04543	16.65364	30.71796	1.51495	0.66009	91.18432	92.86488	34.11695	0.33635	 	81468.53245	 	8.556E-5	 	40098.476	37.7474	 
1150.0	1.0	0.0	7.24184	7.54357	-5.07378	16.63417	30.66238	1.51239	0.66121	91.79102	93.3769	34.34871	0.33616	 	87102.73332	 	7.97454E-5	 	39909.96	37.7032	 
1145.0	1.0	0.0	7.244	7.54133	-5.10209	16.6147	30.60681	1.50981	0.66234	92.39951	93.8896	34.58121	0.33598	 	93170.84127	 	7.42897E-5	 	39721.663	37.6594	 
1140.0	1.0	0.0	7.24615	7.53908	-5.13035	16.59522	30.55124	1.50722	0.66347	93.00976	94.40292	34.81444	0.33579	 	99709.56348	 	6.91732E-5	 	39533.584	37.6158	 
1135.0	1.0	0.0	7.24831	7.53684	-5.15855	16.57575	30.49567	1.50463	0.66462	93.62174	94.91683	35.04838	0.33561	 	106758.9839	 	6.43771E-5	 	39345.719	37.573	 
1130.0	1.0	0.0	7.25046	7.5346	-5.1867	16.55627	30.44009	1.50202	0.66577	94.23541	95.4313	35.28301	0.33542	 	114362.8986	 	5.98833E-5	 	39158.066	37.5306	 
1125.0	1.0	0.0	7.25261	7.53237	-5.2148	16.53679	30.38452	1.49941	0.66693	94.85073	95.94628	35.51833	0.33524	 	122569.1864	 	5.56749E-5	 	38970.624	37.4884	 
1120.0	1.0	0.0	7.25476	7.53014	-5.24285	16.51731	30.32895	1.49678	0.6681	95.46767	96.46174	35.75432	0.33505	 	131430.2196	 	5.17356E-5	 	38783.389	37.447	 
1115.0	1.0	0.0	7.2569	7.52791	-5.27084	16.49783	30.27337	1.49415	0.66928	96.0862	96.97763	35.99097	0.33487	 	141003.3186	 	4.805E-5	 	38596.359	37.406	 
1110.0	1.0	0.0	7.25904	7.52569	-5.29878	16.47834	30.2178	1.4915	0.67046	96.70626	97.49393	36.22826	0.33468	 	151351.2566	 	4.46036E-5	 	38409.532	37.3654	 
1105.0	1.0	0.0	7.26118	7.52348	-5.32667	16.45886	30.16222	1.48885	0.67166	97.32784	98.01058	36.46619	0.33449	 	162542.8181	 	4.13824E-5	 	38222.904	37.3256	 
1100.0	1.0	0.0	7.26332	7.52127	-5.35451	16.43937	30.10665	1.48619	0.67286	97.95089	98.52756	36.70473	0.33431	 	174653.4201	 	3.83732E-5	 	38036.474	37.286	 
1095.0	1.0	0.0	7.26545	7.51906	-5.3823	16.41988	30.05108	1.48351	0.67408	98.57537	99.04483	36.94387	0.33412	 	187765.8012	 	3.55635E-5	 	37850.239	37.247	 
1090.0	1.0	0.0	7.26758	7.51685	-5.41003	16.40039	29.9955	1.48083	0.6753	99.20125	99.56235	37.18361	0.33394	 	201970.7881	 	3.29414E-5	 	37664.196	37.2086	 
1085.0	1.0	0.0	7.26971	7.51465	-5.43772	16.3809	29.93993	1.47814	0.67653	99.8285	100.08007	37.42393	0.33375	 	217368.1471	 	3.04957E-5	 	37478.341	37.171	 
1080.0	1.0	0.0	7.27183	7.51246	-5.46535	16.3614	29.88435	1.47543	0.67777	100.45708	100.59798	37.66481	0.33357	 	234067.5326	 	2.82157E-5	 	37292.673	37.1336	 
1075.0	1.0	0.0	7.27395	7.51027	-5.49292	16.34191	29.82878	1.47272	0.67902	101.08694	101.11602	37.90624	0.33338	 	252189.5432	 	2.60914E-5	 	37107.189	37.0968	 
1070.0	1.0	0.0	7.27607	7.50808	-5.52045	16.32241	29.7732	1.47	0.68027	101.71807	101.63417	38.14821	0.3332	 	271866.8977	 	2.41132E-5	 	36921.884	37.061	 
1065.0	1.0	0.0	7.27819	7.5059	-5.54792	16.30291	29.71763	1.46726	0.68154	102.35041	102.15238	38.39071	0.33301	 	293245.7478	 	2.2272E-5	 	36736.757	37.0254	 
1060.0	1.0	0.0	7.2803	7.50372	-5.57535	16.28341	29.66205	1.46452	0.68282	102.98393	102.67062	38.63371	0.33282	 	316487.1419	 	2.05594E-5	 	36551.804	36.9906	 
1055.0	1.0	0.0	7.28241	7.50154	-5.60272	16.26391	29.60648	1.46177	0.6841	103.61861	103.18885	38.87722	0.33264	 	341768.6604	 	1.89671E-5	 	36367.022	36.9564	 
1050.0	1.0	0.0	7.28452	7.49937	-5.63003	16.24441	29.5509	1.459	0.6854	104.25439	103.70705	39.1212	0.33245	 	369286.2427	 	1.74877E-5	 	36182.407	36.923	 
1045.0	1.0	0.0	7.28663	7.4972	-5.6573	16.2249	29.49533	1.45623	0.68671	104.89125	104.22516	39.36567	0.33227	 	399256.2308	 	1.61139E-5	 	35997.957	36.89	 
1040.0	1.0	0.0	7.28873	7.49504	-5.68451	16.2054	29.43975	1.45344	0.68802	105.52915	104.74316	39.61058	0.33208	 	431917.6558	 	1.48388E-5	 	35813.667	36.858	 
1035.0	1.0	0.0	7.29083	7.49288	-5.71167	16.18589	29.38417	1.45065	0.68935	106.16805	105.26101	39.85595	0.3319	 	467534.799	 	1.36562E-5	 	35629.534	36.8266	 
1030.0	1.0	0.0	7.29293	7.49073	-5.73878	16.16638	29.3286	1.44784	0.69068	106.80792	105.77868	40.10174	0.33171	 	506400.0625	 	1.25599E-5	 	35445.555	36.7958	 
1025.0	1.0	0.0	7.29502	7.48858	-5.76584	16.14687	29.27302	1.44502	0.69203	107.44872	106.29613	40.34796	0.33153	 	548837.1885	 	1.15443E-5	 	35261.726	36.7658	 
1020.0	1.0	0.0	7.29711	7.48643	-5.79284	16.12736	29.21745	1.4422	0.69339	108.09041	106.81333	40.59457	0.33134	 	595204.873	 	1.0604E-5	 	35078.043	36.7366	 
1015.0	1.0	0.0	7.2992	7.48429	-5.81979	16.10784	29.16187	1.43936	0.69475	108.73297	107.33024	40.84158	0.33116	 	645900.8261	 	9.73391E-6	 	34894.501	36.7084	 
1010.0	1.0	0.0	7.30129	7.48215	-5.84669	16.08832	29.10629	1.43651	0.69613	109.37634	107.84682	41.08897	0.33097	 	701366.335	 	8.92934E-6	 	34711.098	36.6806	 
1005.0	1.0	0.0	7.30337	7.48002	-5.87354	16.06881	29.05072	1.43365	0.69752	110.02051	108.36305	41.33672	0.33078	 	762091.3998	 	8.18581E-6	 	34527.829	36.6538	 
1000.0	1.0	0.0	7.30545	7.47789	-5.90034	16.04929	28.99514	1.43078	0.69892	110.66543	108.87889	41.58483	0.3306	 	828620.515	 	7.49913E-6	 	34344.689	36.628	 
995.0	1.0	0.0	7.30752	7.47576	-5.92708	16.02977	28.93956	1.4279	0.70033	111.31106	109.3943	41.83327	0.33041	 	901559.1855	 	6.86536E-6	 	34161.674	36.603	 
990.0	1.0	0.0	7.3096	7.47364	-5.95377	16.01024	28.88399	1.425	0.70175	111.95737	109.90926	42.08204	0.33023	 	981581.2759	 	6.28081E-6	 	33978.78	36.5788	 
985.0	1.0	0.0	7.31167	7.47153	-5.98041	15.99072	28.82841	1.4221	0.70319	112.60433	110.42372	42.33112	0.33004	 	1069437.305	 	5.74201E-6	 	33796.003	36.5554	 
980.0	1.0	0.0	7.31374	7.46941	-6.007	15.9712	28.77283	1.41918	0.70463	113.25189	110.93765	42.58049	0.32986	 	1165963.817	 	5.24571E-6	 	33613.336	36.5334	 
975.0	1.0	0.0	7.3158	7.46731	-6.03353	15.95167	28.71726	1.41626	0.70609	113.90003	111.45103	42.83015	0.32967	 	1272093.978	 	4.78888E-6	 	33430.777	36.5118	 
970.0	1.0	0.0	7.31787	7.4652	-6.06001	15.93214	28.66168	1.41332	0.70756	114.54871	111.96381	43.08009	0.32949	 	1388869.567	 	4.36867E-6	 	33248.318	36.4918	 
965.0	1.0	0.0	7.31993	7.4631	-6.08644	15.91261	28.6061	1.41037	0.70904	115.19788	112.47597	43.33028	0.3293	 	1517454.553	 	3.98239E-6	 	33065.956	36.4724	 
960.0	1.0	0.0	7.32198	7.461	-6.11282	15.89308	28.55053	1.40741	0.71053	115.84752	112.98747	43.58072	0.32911	 	1659150.494	 	3.62758E-6	 	32883.685	36.4542	 
955.0	1.0	0.0	7.32404	7.45891	-6.13915	15.87354	28.49495	1.40443	0.71203	116.49759	113.49828	43.83138	0.32893	 	1815414.001	 	3.30189E-6	 	32701.5	36.437	 
950.0	1.0	0.0	7.32609	7.45682	-6.16542	15.85401	28.43938	1.40145	0.71355	117.14806	114.00837	44.08227	0.32874	 	1987876.577	 	3.00315E-6	 	32519.395	36.421	 
945.0	1.0	0.0	7.32813	7.45474	-6.19164	15.83447	28.3838	1.39845	0.71508	117.79888	114.5177	44.33336	0.32856	 	2178367.16	 	2.72933E-6	 	32337.363	36.4064	 
