T (C)	Fraction solid (wt)-TOTAL	Fraction liquid (wt)-LIQUID	Density (g/(cm)^3)-TOTAL	Molar volume (cm^3)-TOTAL	Volume change (%)-  	Average expansion coeff. (10e-6 1/K)-  	Thermal conductivity (W/(m*K))-TOTAL	Electrical resistivity (10e-6 Ohm*m)-TOTAL	Electrical conductivity (10e6 1/(Ohm*m))-TOTAL	Young's modulus (GPa)-TOTAL	Bulk modulus (GPa)-TOTAL	Shear modulus(GPa)-TOTAL	Poisson's ratio-TOTAL	Liquid viscosity (mPa s)-  	Total viscosity (mPa s)-  	Liquid diffusivity (10e-9 (m^2)/s)-  	Total diffusivity (10e-9 (m^2)/s)-  	Surface Tension (mN/m)-  	Enthalpy (J/mole)-TOTAL	Specific heat (J/(mole K))-TOTAL	Latent heat (J/mole)-TOTAL
700.0	0.0	1.0	2.38113	11.37285	0.0	66.4222	89.96906	0.265	3.77353	0.0	50.29788	0.0	0.5	1.21855	1.21855	3.89784	3.89784	785.32536	29883.858	 	0.0
695.0	0.0	1.0	2.38277	11.36499	-0.0690899	66.52792	89.80134	0.26413	3.78594	0.0	50.36081	0.0	0.5	1.23157	1.23157	3.83682	3.83682	786.57617	29725.158	31.74	0.0
690.0	0.0	1.0	2.38442	11.35716	-0.13796	66.63649	89.63362	0.26326	3.79849	0.0	50.42374	0.0	0.5	1.24486	1.24486	3.77623	3.77623	787.82376	29566.46	31.7396	0.0
685.0	0.0	1.0	2.38606	11.34935	-0.20661	66.74797	89.46589	0.26239	3.81117	0.0	50.48667	0.0	0.5	1.25845	1.25845	3.71609	3.71609	789.06854	29407.763	31.7394	0.0
680.0	0.0	1.0	2.38769	11.34157	-0.27504	66.86242	89.29817	0.26151	3.82398	0.0	50.54961	0.0	0.5	1.27232	1.27232	3.65638	3.65638	790.3104	29249.068	31.739	0.0
675.0	0.0	1.0	2.38933	11.33381	-0.34324	66.97992	89.13045	0.26063	3.83692	0.0	50.61254	0.0	0.5	1.2865	1.2865	3.59712	3.59712	791.54923	29090.375	31.7386	0.0
670.0	0.0	1.0	2.39096	11.32608	-0.41123	67.10053	88.96273	0.25974	3.85	0.0	50.67547	0.0	0.5	1.30098	1.30098	3.53831	3.53831	792.78491	28931.683	31.7384	0.0
665.0	0.0	1.0	2.39259	11.31837	-0.479	67.22433	88.795	0.25885	3.86323	0.0	50.7384	0.0	0.5	1.31579	1.31579	3.47995	3.47995	794.01732	28772.993	31.738	0.0
660.0	0.0	1.0	2.39421	11.31069	-0.54654	67.35139	88.62728	0.25796	3.87659	0.0	50.80133	0.0	0.5	1.33093	1.33093	3.42203	3.42203	795.24628	28614.294	31.7398	0.0
655.0	0.0	1.0	2.39583	11.30303	-0.61387	67.4818	88.45956	0.25706	3.8901	0.0	50.86426	0.0	0.5	1.3464	1.3464	3.36457	3.36457	796.47178	28455.797	31.6994	0.0
654.95	0.0	1.0	2.39585	11.30296	-0.61451	67.48306	88.45795	0.25705	3.89023	0.0	50.86487	0.0	0.5	1.34655	1.34655	3.36402	3.36402	796.48349	28454.281	31.689	0.0010
650.0	0.24413	0.75587	2.43567	11.11816	-2.23942	58.18596	102.18634	0.22133	4.51809	0.11266	51.51711	0.0382693	0.47191	1.36599	12.77883	3.29847	0.35259	790.9516	25693.742	557.441	2603.898
645.0	0.48537	0.51463	2.4764	10.93527	-3.84754	48.84646	120.69779	0.18637	5.36562	1.89252	52.20173	0.65577	0.44299	1.39379	190.36182	3.21517	0.0235408	782.83403	22970.42	544.664	5169.403
640.0	0.63161	0.36839	2.50223	10.82236	-4.84031	43.13898	136.30935	0.16413	6.09281	5.68932	52.71113	1.99658	0.42477	1.42618	596.34207	3.12503	0.00747366	776.33612	21264.384	341.207	6717.966
635.0	0.71895	0.28105	2.51839	10.75278	-5.45212	39.69963	147.72577	0.15061	6.63946	9.8564	53.10227	3.48647	0.41352	1.46111	1101.50493	3.03362	0.004024	771.35088	20185.004	215.876	7640.221
630.0	0.7752	0.2248	2.52934	10.70612	-5.86247	37.46281	155.99396	0.14185	7.04988	13.62939	53.42829	4.84671	0.40605	1.49797	1641.36061	2.94269	0.00268561	767.49597	19434.81	150.039	8233.638
629.41	0.7804	0.2196	2.53039	10.70168	-5.90151	37.25489	156.79839	0.14103	7.09084	14.03075	53.4636	4.99194	0.40534	1.50238	1705.40881	2.93214	0.00258307	767.09131	19361.446	 	8288.632
625.0	0.82249	0.17751	2.53884	10.66601	-6.21514	35.55216	163.30315	0.13475	7.42129	17.60995	53.71653	6.29172	0.39945	1.52789	2292.16617	2.86909	0.00191245	763.96408	18771.358	132.69	8740.659
624.29	0.82791	0.17209	2.53997	10.66124	-6.25701	35.33023	164.17379	0.13393	7.46679	18.12348	53.75505	6.47878	0.39868	1.53208	2386.39849	2.85897	0.00183547	763.51813	18690.622	 	8799.116
620.0	0.85672	0.14328	2.54612	10.63546	-6.48378	34.14352	168.87223	0.12958	7.71734	21.07377	53.97467	7.55622	0.39446	1.55727	2978.3563	2.79928	0.00146364	761.06602	18243.023	105.667	9112.91
615.0	0.8813	0.1187	2.55173	10.61204	-6.68968	33.1131	173.06768	0.12573	7.9536	23.93186	54.21611	8.60402	0.39074	1.58771	3687.74975	2.73024	0.00117547	758.82934	17818.464	84.9118	9381.729
610.0	0.89981	0.10019	2.55628	10.59311	-6.85609	32.32041	176.34975	0.12269	8.15031	26.33174	54.44561	9.48687	0.3878	1.61909	4437.60064	2.66226	9.71344E-4	757.03925	17458.564	71.98	9586.234
609.87	0.90021	0.0997896	2.55638	10.59268	-6.85986	32.30299	176.4228	0.12263	8.15485	26.3866	54.4513	9.50708	0.38773	1.6199	4457.07216	2.66055	9.66962E-4	756.99896	17450.21	 	9590.671
609.87	0.90021	0.0997896	2.55638	10.59268	-6.85986	32.30297	176.42276	0.12263	8.15486	26.38663	54.45132	9.50709	0.38773	1.6199	4457.10808	2.66055	9.66954E-4	756.99883	17450.182	 	9590.687
605.0	0.91519	0.0848107	2.5603	10.57648	-7.00233	31.64551	179.14654	0.1201	8.32671	28.50243	54.6675	10.28776	0.38526	1.64876	5264.67484	2.59955	8.14111E-4	755.52573	17131.54	65.4048	9758.206
600.0	0.92687	0.073127	2.56366	10.56258	-7.12454	31.11695	181.36287	0.11795	8.478	30.2971	54.8836	10.95158	0.38323	1.67999	6149.09693	2.53669	6.93049E-4	754.41551	16845.042	57.2996	9889.996
595.0	0.93603	0.0639741	2.56658	10.55056	-7.23023	30.68865	183.17422	0.11612	8.61199	31.81329	55.09514	11.51362	0.38155	1.71283	7110.10298	2.47382	5.95944E-4	753.62009	16586.368	51.7348	9994.305
590.0	0.94339	0.056611	2.56918	10.53987	-7.32424	30.33105	184.69524	0.1145	8.7338	33.12114	55.30288	11.99936	0.38012	1.74725	8167.0323	2.41111	5.15833E-4	753.07638	16347.458	47.782	10079.189
585.0	0.94944	0.0505594	2.57155	10.53017	-7.40958	30.02555	186.00027	0.11304	8.84676	34.26858	55.50737	12.42628	0.37887	1.78327	9339.42062	2.34872	4.48466E-4	752.73872	16123.141	44.8634	10149.819
582.68	0.95189	0.0481057	2.57259	10.52592	-7.44688	29.89764	186.54748	0.1124	8.89687	34.75645	55.60135	12.60803	0.37835	1.80056	9928.90454	2.31988	4.20699E-4	752.63924	16022.917	 	10178.761
580.0	0.961	0.0390007	2.57459	10.51757	-7.52037	29.54113	188.26322	0.11103	9.00687	36.39255	55.76084	13.21665	0.37677	1.83	10942.99902	2.27542	3.80518E-4	752.85143	15820.26	60.5762	10299.351
578.95	0.96369	0.0363085	2.57524	10.51483	-7.54439	29.43339	188.78626	0.11058	9.04307	36.90011	55.8177	13.40573	0.37628	1.84146	11328.13797	2.25847	3.67127E-4	752.98889	15752.089	 	10335.221
570.0	0.97845	0.0215501	2.57959	10.49666	-7.70418	28.80771	191.80585	0.1077	9.28519	39.9371	56.23919	14.54015	0.37334	1.93469	14712.97053	2.12706	2.79699E-4	754.83092	15278.995	54.1265	10534.919
565.0	0.98267	0.017328	2.5814	10.48906	-7.77104	28.60628	192.79809	0.10651	9.3889	40.96575	56.44862	14.92589	0.3723	1.9873	16776.41409	2.05847	2.43842E-4	756.01833	15067.444	42.3102	10594.121
560.0	0.9857	0.014298	2.58303	10.48222	-7.83118	28.44847	193.58079	0.10545	9.48359	41.78907	56.64935	15.23533	0.37145	2.04072	19061.72258	1.99263	2.13328E-4	757.23929	14871.77	39.1348	10637.775
558.9	0.98626	0.0137445	2.58338	10.48078	-7.84378	28.41785	193.73331	0.10522	9.50361	41.95048	56.69265	15.29608	0.37128	2.0526	19599.37003	1.97848	2.07202E-4	757.50684	14830.257	 	10645.894
550.24	0.99115	0.008851	2.58614	10.46917	-7.94594	28.15089	194.98604	0.10346	9.66568	43.33607	57.0101	15.8185	0.36979	2.14225	24506.30459	1.87595	1.63989E-4	759.35238	14496.152	 	10717.557
550.0	0.99186	0.00814229	2.58624	10.46868	-7.95019	28.13314	195.11369	0.10336	9.67481	43.48612	57.02324	15.87482	0.36966	2.14679	24716.16073	1.87144	1.62549E-4	759.21109	14478.767	39.3003	10727.716
545.0	1.0	0.0	2.5877	10.46101	-8.01763	27.91317	196.6683	0.10192	9.8115	45.35823	57.25107	16.57884	0.36796	 	28777.46056	 	1.38761E-4	 	14209.407	53.872	10846.028
540.0	1.0	0.0	2.58895	10.45596	-8.06201	27.85826	196.90491	0.10118	9.88371	45.63436	57.42948	16.68454	0.36756	 	32483.47719	 	1.22179E-4	 	13957.971	50.2872	 
535.0	1.0	0.0	2.5902	10.45093	-8.10625	27.80339	197.13938	0.10043	9.9567	45.90937	57.6063	16.78987	0.36717	 	36721.76528	 	1.07413E-4	 	13802.975	30.9992	 
530.0	1.0	0.0	2.59144	10.44592	-8.15033	27.74855	197.37169	0.099696	10.03049	46.18327	57.78153	16.89482	0.36679	 	41576.48216	 	9.42835E-5	 	13648.458	30.9034	 
525.0	1.0	0.0	2.59268	10.44092	-8.19426	27.69375	197.60182	0.09896	10.10509	46.45605	57.95521	16.9994	0.3664	 	47146.29237	 	8.26273E-5	 	13494.414	30.8088	 
520.0	1.0	0.0	2.59392	10.43594	-8.23805	27.63897	197.82974	0.0982268	10.18052	46.72771	58.12736	17.10361	0.36602	 	53547.07367	 	7.22947E-5	 	13340.833	30.7162	 
515.0	1.0	0.0	2.59515	10.43098	-8.28169	27.58423	198.05542	0.0974963	10.2568	46.99826	58.29799	17.20744	0.36564	 	60915.16596	 	6.31495E-5	 	13187.707	30.6252	 
510.0	1.0	0.0	2.59638	10.42604	-8.32517	27.52952	198.27883	0.0967687	10.33393	47.2677	58.46713	17.3109	0.36526	 	69411.27966	 	5.50683E-5	 	13035.028	30.5358	 
505.0	1.0	0.0	2.59761	10.42111	-8.36851	27.47484	198.49995	0.0960437	10.41192	47.53602	58.6348	17.41398	0.36488	 	79225.20672	 	4.79387E-5	 	12882.788	30.448	 
500.0	1.0	0.0	2.59883	10.4162	-8.4117	27.4202	198.71873	0.0953215	10.49081	47.80323	58.80103	17.51669	0.36451	 	90581.51071	 	4.16592E-5	 	12730.978	30.362	 
495.0	1.0	0.0	2.60006	10.4113	-8.45474	27.36558	198.93516	0.0946021	10.57059	48.06933	58.96581	17.61901	0.36413	 	103746.4136	 	3.61376E-5	 	12579.591	30.2774	 
490.0	1.0	0.0	2.60127	10.40642	-8.49764	27.311	199.1492	0.0938853	10.6513	48.33431	59.12919	17.72096	0.36376	 	119036.1483	 	3.12909E-5	 	12428.618	30.1946	 
485.0	1.0	0.0	2.60249	10.40156	-8.54038	27.25645	199.36082	0.0931711	10.73294	48.59817	59.29116	17.82253	0.36339	 	136827.1113	 	2.70439E-5	 	12278.051	30.1134	 
480.0	1.0	0.0	2.6037	10.39672	-8.58298	27.20193	199.56998	0.0924597	10.81553	48.86092	59.45176	17.92372	0.36302	 	157568.2293	 	2.33292E-5	 	12127.882	30.0338	 
475.0	1.0	0.0	2.60491	10.39189	-8.62543	27.14745	199.77666	0.0917508	10.89908	49.12256	59.61101	18.02454	0.36266	 	181796.0567	 	2.00859E-5	 	11978.103	29.9558	 
470.0	1.0	0.0	2.60612	10.38708	-8.66773	27.093	199.98081	0.0910446	10.98363	49.38308	59.76891	18.12497	0.36229	 	210153.2484	 	1.72595E-5	 	11828.706	29.8794	 
465.0	1.0	0.0	2.60732	10.38228	-8.70988	27.03858	200.18241	0.090341	11.06917	49.64249	59.92549	18.22501	0.36193	 	243411.2161	 	1.4801E-5	 	11679.681	29.805	 
460.0	1.0	0.0	2.60852	10.37751	-8.75189	26.98419	200.38142	0.0896399	11.15574	49.90078	60.08076	18.32468	0.36157	 	282497.978	 	1.26667E-5	 	11531.022	29.7318	 
455.0	1.0	0.0	2.60972	10.37275	-8.79374	26.92984	200.5778	0.0889414	11.24336	50.15797	60.23474	18.42397	0.36122	 	328532.4766	 	1.08176E-5	 	11382.721	29.6602	 
450.0	1.0	0.0	2.61091	10.368	-8.83545	26.87551	200.77152	0.0882455	11.33203	50.41404	60.38745	18.52287	0.36086	 	382866.9703	 	9.21865E-6	 	11234.768	29.5906	 
445.0	1.0	0.0	2.6121	10.36328	-8.87702	26.82122	200.96253	0.087552	11.42178	50.66899	60.5389	18.62138	0.36051	 	447139.5267	 	7.83897E-6	 	11087.157	29.5222	 
440.0	1.0	0.0	2.61329	10.35857	-8.91843	26.76696	201.15079	0.0868611	11.51264	50.92283	60.68912	18.71951	0.36015	 	523339.1911	 	6.65096E-6	 	10939.878	29.4558	 
435.0	1.0	0.0	2.61448	10.35387	-8.9597	26.71274	201.33628	0.0861726	11.60461	51.17556	60.83811	18.81726	0.3598	 	613887.1	 	5.6302E-6	 	10792.925	29.3906	 
430.0	1.0	0.0	2.61566	10.3492	-9.00083	26.65854	201.51893	0.0854866	11.69774	51.42718	60.98589	18.91462	0.35946	 	721737.707	 	4.75505E-6	 	10646.288	29.3274	 
425.0	1.0	0.0	2.61684	10.34454	-9.0418	26.60438	201.69872	0.0848031	11.79202	51.67768	61.13247	19.01159	0.35911	 	850505.4484	 	4.00644E-6	 	10499.961	29.2654	 
420.0	1.0	0.0	2.61801	10.33989	-9.08263	26.55025	201.8756	0.084122	11.8875	51.92707	61.27788	19.10817	0.35877	 	1004623.676	 	3.36752E-6	 	10353.935	29.2052	 
415.0	1.0	0.0	2.61918	10.33526	-9.12331	26.49615	202.04952	0.0834433	11.98419	52.17535	61.42212	19.20437	0.35842	 	1189544.636	 	2.82351E-6	 	10208.206	29.1458	 
410.0	1.0	0.0	2.62035	10.33065	-9.16385	26.44209	202.22045	0.082767	12.08211	52.42252	61.56521	19.30017	0.35808	 	1411991.818	 	2.36141E-6	 	10062.773	29.0866	 
405.0	1.0	0.0	2.62152	10.32606	-9.20424	26.38805	202.38832	0.0820931	12.1813	52.66857	61.70718	19.39559	0.35775	 	1680279.303	 	1.96984E-6	 	9917.636	29.0274	 
400.0	1.0	0.0	2.62268	10.32148	-9.24449	26.33405	202.55309	0.0814215	12.28177	52.91351	61.84801	19.49062	0.35741	 	2004717.127	 	1.63887E-6	 	9772.794	28.9684	 
395.0	1.0	0.0	2.62384	10.31692	-9.28458	26.28008	202.71472	0.0807523	12.38355	53.15734	61.98774	19.58525	0.35708	 	2398127.364	 	1.35984E-6	 	9628.246	28.9096	 
390.0	1.0	0.0	2.625	10.31238	-9.32454	26.22615	202.87315	0.0800854	12.48667	53.40006	62.12638	19.6795	0.35674	 	2876503.228	 	1.12521E-6	 	9483.992	28.8508	 
385.0	1.0	0.0	2.62615	10.30785	-9.36434	26.17224	203.02834	0.0794208	12.59116	53.64166	62.26393	19.77335	0.35641	 	3459853.492	 	9.2844E-7	 	9340.03	28.7924	 
380.0	1.0	0.0	2.6273	10.30334	-9.404	26.11837	203.18021	0.0787585	12.69704	53.88215	62.40042	19.8668	0.35608	 	4173287.824	 	7.63873E-7	 	9196.36	28.734	 
375.0	1.0	0.0	2.62845	10.29885	-9.44352	26.06453	203.32873	0.0780985	12.80434	54.12153	62.53585	19.95987	0.35576	 	5048416.389	 	6.26624E-7	 	9052.982	28.6756	 
370.0	1.0	0.0	2.62959	10.29437	-9.48289	26.01073	203.47383	0.0774408	12.91309	54.3598	62.67024	20.05254	0.35543	 	6125160.822	 	5.12485E-7	 	8909.894	28.6176	 
365.0	1.0	0.0	2.63073	10.28991	-9.52211	25.95695	203.61546	0.0767853	13.02333	54.59695	62.80361	20.14481	0.35511	 	7454105.561	 	4.17844E-7	 	8767.096	28.5596	 
360.0	1.0	0.0	2.63187	10.28547	-9.56119	25.90321	203.75356	0.076132	13.13507	54.83299	62.93595	20.23669	0.35479	 	9099561.545	 	3.39604E-7	 	8624.587	28.5018	 
355.0	1.0	0.0	2.633	10.28104	-9.60013	25.8495	203.88805	0.075481	13.24837	55.06793	63.06729	20.32817	0.35447	 	1.11435725E7	 	2.75122E-7	 	8482.367	28.444	 
350.0	1.0	0.0	2.63413	10.27663	-9.63892	25.79582	204.01889	0.0748322	13.36324	55.30175	63.19764	20.41926	0.35416	 	1.369117317E7	 	2.22146E-7	 	8340.435	28.3864	 
345.0	1.0	0.0	2.63526	10.27223	-9.67757	25.74217	204.14599	0.0741855	13.47972	55.53445	63.32701	20.50994	0.35384	 	1.687731659E7	 	1.78763E-7	 	8198.791	28.3288	 
340.0	1.0	0.0	2.63638	10.26785	-9.71607	25.68856	204.2693	0.073541	13.59785	55.76605	63.45541	20.60023	0.35353	 	2.087603572E7	 	1.43353E-7	 	8057.434	28.2714	 
335.0	1.0	0.0	2.6375	10.26349	-9.75442	25.63498	204.38875	0.0728987	13.71767	55.99654	63.58285	20.69012	0.35322	 	2.591260751E7	 	1.14548E-7	 	7916.362	28.2144	 
330.0	1.0	0.0	2.63862	10.25914	-9.79264	25.58143	204.50426	0.0722585	13.8392	56.22591	63.70934	20.77961	0.35291	 	3.227976895E7	 	9.11972E-8	 	7775.577	28.157	 
325.0	1.0	0.0	2.63973	10.25481	-9.8307	25.52791	204.61576	0.0716205	13.96249	56.45417	63.8349	20.8687	0.3526	 	4.035942388E7	 	7.23356E-8	 	7635.078	28.0998	 
320.0	1.0	0.0	2.64084	10.2505	-9.86863	25.47443	204.72317	0.0709845	14.08758	56.68132	63.95953	20.95739	0.3523	 	5.065182303E7	 	5.71553E-8	 	7494.863	28.043	 
315.0	1.0	0.0	2.64195	10.2462	-9.90641	25.42097	204.82641	0.0703507	14.21451	56.90736	64.08325	21.04568	0.352	 	6.381495963E7	 	4.49834E-8	 	7354.933	27.986	 
310.0	1.0	0.0	2.64305	10.24192	-9.94405	25.36755	204.92541	0.0697189	14.34331	57.13229	64.20607	21.13356	0.3517	 	8.071799321E7	 	3.52612E-8	 	7215.287	27.9292	 
305.0	1.0	0.0	2.64416	10.23766	-9.98154	25.31417	205.02006	0.0690892	14.47404	57.35611	64.32799	21.22105	0.3514	 	1.025140258E8	 	2.75261E-8	 	7075.925	27.8724	 
300.0	1.0	0.0	2.64525	10.23341	-10.01889	25.26081	205.1103	0.0684616	14.60673	57.57881	64.44903	21.30813	0.3511	 	1.307397024E8	 	2.13967E-8	 	6936.847	27.8156	 
295.0	1.0	0.0	2.64635	10.22918	-10.05609	25.20749	205.19602	0.067836	14.74144	57.80041	64.5692	21.3948	0.35081	 	1.67452172E8	 	1.65599E-8	 	6798.052	27.759	 
290.0	1.0	0.0	2.64744	10.22497	-10.09316	25.15419	205.27714	0.0672124	14.8782	58.02089	64.68851	21.48107	0.35051	 	2.154183458E8	 	1.27593E-8	 	6659.54	27.7024	 
285.0	1.0	0.0	2.64853	10.22077	-10.13008	25.10094	205.35356	0.0665909	15.01707	58.24026	64.80696	21.56694	0.35022	 	2.783777304E8	 	9.78595E-9	 	6521.311	27.6458	 
280.0	1.0	0.0	2.64961	10.21658	-10.16685	25.04771	205.42518	0.0659713	15.1581	58.45853	64.92457	21.65239	0.34993	 	3.614093149E8	 	7.47017E-9	 	6383.364	27.5894	 
275.0	1.0	0.0	2.65069	10.21242	-10.20349	24.99451	205.49189	0.0653538	15.30133	58.67568	65.04135	21.73745	0.34965	 	4.714464062E8	 	5.67484E-9	 	6245.7	27.5328	 
270.0	1.0	0.0	2.65177	10.20827	-10.23998	24.94135	205.55358	0.0647382	15.44682	58.89172	65.1573	21.82209	0.34936	 	6.180029778E8	 	4.28959E-9	 	6108.319	27.4762	 
265.0	1.0	0.0	2.65284	10.20413	-10.27633	24.88822	205.61016	0.0641246	15.59463	59.10665	65.27244	21.90633	0.34908	 	8.142041175E8	 	3.22594E-9	 	5971.219	27.42	 
260.0	1.0	0.0	2.65391	10.20002	-10.31253	24.83512	205.66149	0.063513	15.74481	59.32047	65.38677	21.99016	0.3488	 	1.078256212E9	 	2.41332E-9	 	5834.403	27.3632	 
255.0	1.0	0.0	2.65498	10.19592	-10.3486	24.78206	205.70747	0.0629033	15.89742	59.53318	65.5003	22.07358	0.34852	 	1.435556795E9	 	1.79566E-9	 	5697.869	27.3068	 
250.0	1.0	0.0	2.65605	10.19183	-10.38452	24.72903	205.74797	0.0622955	16.05252	59.74478	65.61305	22.15659	0.34824	 	1.921740534E9	 	1.32867E-9	 	5561.617	27.2504	 
245.0	1.0	0.0	2.65711	10.18776	-10.4203	24.67602	205.78286	0.0616897	16.21017	59.95527	65.72502	22.23919	0.34796	 	2.587103867E9	 	9.77526E-10	 	5425.648	27.1938	 
240.0	1.0	0.0	2.65816	10.18371	-10.45593	24.62306	205.81201	0.0610857	16.37044	60.16464	65.83622	22.32138	0.34769	 	3.503072985E9	 	7.1496E-10	 	5289.962	27.1372	 
235.0	1.0	0.0	2.65922	10.17967	-10.49143	24.57012	205.83527	0.0604837	16.53339	60.37291	65.94665	22.40316	0.34742	 	4.771720398E9	 	5.19761E-10	 	5154.56	27.0804	 
230.0	1.0	0.0	2.66027	10.17565	-10.52678	24.51721	205.85252	0.0598835	16.69908	60.58007	66.05634	22.48452	0.34715	 	6.539860726E9	 	3.75505E-10	 	5019.441	27.0238	 
225.0	1.0	0.0	2.66132	10.17165	-10.56199	24.46434	205.86359	0.0592853	16.8676	60.78612	66.16527	22.56548	0.34688	 	9.020072937E9	 	2.69548E-10	 	4884.606	26.967	 
220.0	1.0	0.0	2.66236	10.16766	-10.59706	24.4115	205.86833	0.0586888	17.03901	60.99105	66.27347	22.64602	0.34662	 	1.2522299999999998E10	 	1.92213E-10	 	4750.055	26.9102	 
215.0	1.0	0.0	2.6634	10.16368	-10.63199	24.35869	205.86658	0.0580943	17.21339	61.19488	66.38095	22.72614	0.34635	 	1.75015E10	 	1.36133E-10	 	4615.79	26.853	 
210.0	1.0	0.0	2.66444	10.15973	-10.66678	24.30592	205.85818	0.0575016	17.39082	61.3976	66.4877	22.80586	0.34609	 	2.4630699999999996E10	 	9.57398E-11	 	4481.811	26.7958	 
205.0	1.0	0.0	2.66547	10.15579	-10.70143	24.25318	205.84295	0.0569107	17.57137	61.59921	66.59373	22.88515	0.34583	 	3.49125E10	 	6.68452E-11	 	4348.117	26.7388	 
200.0	1.0	0.0	2.6665	10.15186	-10.73593	24.20046	205.8207	0.0563217	17.75514	61.7997	66.69906	22.96404	0.34558	 	4.985259999999999E10	 	4.63231E-11	 	4214.712	26.681	 
195.0	1.0	0.0	2.66753	10.14796	-10.7703	24.14779	205.79125	0.0557345	17.9422	61.99909	66.8037	23.0425	0.34532	 	7.17297E10	 	3.18546E-11	 	4081.594	26.6236	 
190.0	1.0	0.0	2.66855	10.14406	-10.80452	24.09514	205.75441	0.0551491	18.13265	62.19737	66.90764	23.12055	0.34507	 	1.04021E11	 	2.17313E-11	 	3948.765	26.5658	 
185.0	1.0	0.0	2.66957	10.14019	-10.83861	24.04253	205.70995	0.0545655	18.32658	62.39454	67.0109	23.19819	0.34481	 	1.52079E11	 	1.47037E-11	 	3816.227	26.5076	 
180.0	1.0	0.0	2.67059	10.13633	-10.87255	23.98994	205.65768	0.0539838	18.52409	62.5906	67.11348	23.2754	0.34457	 	2.2421E11	 	9.86447E-12	 	3683.98	26.4494	 
175.0	1.0	0.0	2.6716	10.13248	-10.90635	23.93739	205.59737	0.0534038	18.72527	62.78555	67.2154	23.3522	0.34432	 	3.33429E11	 	6.56005E-12	 	3552.026	26.3908	 
170.0	1.0	0.0	2.67261	10.12865	-10.94002	23.88488	205.52877	0.0528256	18.93023	62.97939	67.31666	23.42858	0.34407	 	5.00312E11	 	4.32312E-12	 	3420.366	26.332	 
165.0	1.0	0.0	2.67362	10.12484	-10.97354	23.83239	205.45166	0.0522492	19.13907	63.17213	67.41726	23.50454	0.34383	 	7.57705E11	 	2.82234E-12	 	3289.001	26.273	 
