T (C)	Fraction solid (wt)-TOTAL	Fraction liquid (wt)-LIQUID	Density (g/(cm)^3)-TOTAL	Molar volume (cm^3)-TOTAL	Volume change (%)-  	Average expansion coeff. (10e-6 1/K)-  	Thermal conductivity (W/(m*K))-TOTAL	Electrical resistivity (10e-6 Ohm*m)-TOTAL	Electrical conductivity (10e6 1/(Ohm*m))-TOTAL	Young's modulus (GPa)-TOTAL	Bulk modulus (GPa)-TOTAL	Shear modulus(GPa)-TOTAL	Poisson's ratio-TOTAL	Liquid viscosity (mPa s)-  	Total viscosity (mPa s)-  	Liquid diffusivity (10e-9 (m^2)/s)-  	Total diffusivity (10e-9 (m^2)/s)-  	Surface Tension (mN/m)-  	Enthalpy (J/mole)-TOTAL	Specific heat (J/(mole K))-TOTAL	Latent heat (J/mole)-TOTAL
700.0	0.00238	0.99762	2.45858	11.38854	0.0	66.94319	88.66206	0.26891	3.71871	6.21165E-10	49.46381	2.07123E-10	0.4995	1.26421	1.26421	3.75705	3.75705	724.40395	29553.607	 	0.0
695.0	0.00253	0.99747	2.46031	11.38052	-0.0703512	67.04531	88.49051	0.26805	3.73068	7.99925E-10	49.53395	2.66736E-10	0.49947	1.27758	1.27758	3.69863	3.69863	725.3742	29392.097	32.302	2.52
690.0	0.00267	0.99733	2.46204	11.37256	-0.14032	67.15113	88.31905	0.26718	3.74278	1.00531E-9	49.60413	3.35229E-10	0.49944	1.29124	1.29124	3.64061	3.64061	726.34411	29230.7	32.2794	4.926
685.0	0.00281	0.99719	2.46376	11.36463	-0.20992	67.26068	88.14768	0.26631	3.75501	1.23673E-9	49.67435	4.12406E-10	0.49941	1.3052	1.3052	3.58298	3.58298	727.31368	29069.412	32.2576	7.224
680.0	0.00294	0.99706	2.46547	11.35675	-0.27914	67.37411	87.97639	0.26544	3.76737	1.4944E-9	49.74461	4.98338E-10	0.49939	1.31946	1.31946	3.52575	3.52575	728.2829	28908.228	32.2368	9.422
675.0	0.00306	0.99694	2.46719	11.34879	-0.349	67.48559	87.80431	0.26456	3.77983	1.77693E-9	49.8144	5.92564E-10	0.49936	1.33404	1.33404	3.46893	3.46893	729.25182	28747.144	32.2168	11.519
670.0	0.00318	0.99682	2.46889	11.34099	-0.41749	67.60675	87.63318	0.26368	3.79247	2.0838E-9	49.88472	6.9491E-10	0.49933	1.34894	1.34894	3.41251	3.41251	730.22033	28586.156	32.1976	13.525
666.71	0.00326	0.99674	2.47001	11.33583	-0.46278	67.68631	87.5203	0.2631	3.80084	2.29783E-9	49.93084	7.66291E-10	0.49932	1.35893	1.35893	3.37561	3.37561	730.85758	28480.253	32.182	14.794
665.0	0.0038	0.9962	2.47069	11.3327	-0.49028	67.70444	87.46686	0.26278	3.80544	2.4243E-9	49.95719	8.08542E-10	0.49918	1.36383	1.36383	3.35737	3.35737	731.19067	28416.825	37.1087	23.875
660.0	0.00532	0.99468	2.47265	11.32371	-0.56918	67.76724	87.31034	0.26185	3.81899	3.58571E-9	50.03521	1.1962E-9	0.49879	1.37842	1.37842	3.30413	3.30413	732.16453	28232.334	36.8982	49.375
655.0	0.00675	0.99325	2.47459	11.3148	-0.64743	67.83492	87.15226	0.26092	3.83261	9.66012E-9	50.11354	3.22342E-9	0.49843	1.3934	1.3934	3.25109	3.25109	733.1377	28049.742	36.5184	73.173
650.0	0.00809	0.99191	2.47652	11.30606	-0.72422	67.91256	86.9935	0.25999	3.84635	2.73422E-8	50.1924	9.12568E-9	0.49809	1.40878	1.40878	3.19827	3.19827	734.11016	27869.04	36.1404	95.408
645.0	0.00934	0.99066	2.47842	11.29738	-0.80045	67.99481	86.83329	0.25906	3.86017	6.40902E-8	50.27117	2.13952E-8	0.49777	1.42457	1.42457	3.14568	3.14568	735.05881	27690.1	35.788	116.215
640.32	0.01045	0.98955	2.48019	11.28935	-0.87095	68.07808	86.68255	0.25818	3.8732	1.22074E-7	50.34499	4.07597E-8	0.49749	1.43973	1.43973	3.09672	3.09672	735.96861	27524.197	 	134.485
635.0	0.22504	0.77496	2.51697	11.12434	-2.31987	59.6811	97.827	0.22744	4.39678	0.0772485	50.54519	0.0262526	0.47126	1.4678	12.85379	3.0198	0.34484	735.40705	25060.321	262.978	2430.758
634.14	0.25297	0.74703	2.52188	11.10269	-2.50994	58.58422	99.43546	0.22355	4.47331	0.12711	50.59919	0.0433005	0.46777	1.47257	19.78754	3.00716	0.22379	735.31722	24734.242	 	2729.806
630.0	0.39486	0.60514	2.54723	10.99223	-3.47985	52.91693	108.31335	0.20429	4.89504	0.81792	50.81407	0.28222	0.44908	1.49417	117.14435	2.95017	0.0376292	734.70516	23068.933	398.278	4265.041
625.0	0.52176	0.47824	2.57063	10.89214	-4.35869	47.81357	117.71389	0.18693	5.34949	2.6663	51.04077	0.9311	0.4318	1.52194	389.04229	2.88031	0.0112678	734.01884	21541.671	305.452	5635.54
620.0	0.61111	0.38889	2.58771	10.82027	-4.98981	44.20036	125.67294	0.17412	5.74317	5.25873	51.24989	1.85262	0.41927	1.55089	805.896	2.81081	0.00540919	733.45857	20421.37	224.06	6599.42
615.0	0.67588	0.32412	2.60055	10.76683	-5.45906	41.56446	132.15503	0.16465	6.07339	8.14389	51.45043	2.88806	0.40992	1.58082	1331.16696	2.74214	0.00325642	733.02634	19566.984	170.877	7297.727
611.13	0.71425	0.28575	2.60844	10.73426	-5.74505	39.99182	136.29249	0.15896	6.29093	10.37276	51.60363	3.69332	0.40426	1.60463	1794.70261	2.6897	0.00240483	732.77586	19032.478	 	7711.721
611.13	0.71425	0.28575	2.60844	10.73426	-5.74505	39.99182	136.29249	0.15896	6.29093	10.37276	51.60363	3.69332	0.40426	1.60463	1794.70261	2.6897	0.00240483	732.77586	19032.478	 	7711.721
610.0	0.72459	0.27541	2.61058	10.72545	-5.8224	39.56872	137.44929	0.15742	6.35246	11.04862	51.64904	3.93828	0.40272	1.6114	1944.93267	2.67496	0.00221624	732.69149	18883.252	136.746	7825.721
606.11	0.75609	0.24391	2.61722	10.69822	-6.06149	38.27627	141.0643	0.15271	6.54838	13.32789	51.80218	4.76685	0.39798	1.63517	2496.06978	2.62446	0.00171928	732.44102	18415.887	 	8172.143
605.0	0.76401	0.23599	2.61893	10.69126	-6.12261	37.9506	142.00076	0.15151	6.60018	13.9569	51.84651	4.99612	0.39677	1.64194	2662.22577	2.61035	0.00160994	732.38192	18294.584	117.734	8258.988
600.0	0.79511	0.20489	2.6258	10.66328	-6.36826	36.66349	145.75435	0.14677	6.81344	16.66821	52.04264	5.98725	0.39198	1.67323	3463.37981	2.54695	0.00123048	732.17977	17799.537	99.0094	8598.975
595.0	0.81954	0.18046	2.63148	10.64029	-6.57012	35.6446	148.80131	0.14294	6.99594	19.0979	52.23867	6.8791	0.38811	1.70585	4341.41964	2.48393	9.76E-4	732.08431	17378.009	84.3056	8865.779
590.0	0.83915	0.16085	2.63629	10.62085	-6.74091	34.81589	151.31103	0.13976	7.15514	21.27034	52.43451	7.67927	0.38492	1.73985	5307.98984	2.42137	7.93675E-4	732.08356	17009.331	73.7356	9080.069
585.0	0.85519	0.14481	2.64047	10.60405	-6.88837	34.13	153.40371	0.13705	7.29637	23.21402	52.63016	8.39729	0.38223	1.77523	6377.44801	2.35937	6.56754E-4	732.16708	16679.775	65.9112	9255.572
580.0	0.86851	0.13149	2.64416	10.58927	-7.01818	33.55214	155.16976	0.13471	7.42362	24.95977	52.82551	9.04385	0.37993	1.81201	7567.40338	2.298	5.50257E-4	732.32608	16379.917	59.9716	9401.709
575.0	0.87973	0.12027	2.64746	10.57604	-7.1343	33.05802	156.67576	0.13263	7.53986	26.53506	53.02044	9.62861	0.37793	1.85024	8898.02087	2.23734	4.65228E-4	732.55308	16103.114	55.3606	9525.121
570.0	0.88928	0.11072	2.65047	10.56406	-7.2395	32.63064	157.96993	0.13077	7.64722	27.96215	53.21467	10.15945	0.37616	1.88993	10391.85464	2.17744	3.96003E-4	732.84159	15844.563	51.7102	9630.61
565.74	0.89634	0.10366	2.65283	10.55463	-7.32232	32.30806	158.93616	0.12931	7.73308	29.07713	53.37976	10.57492	0.37482	1.92494	11813.69373	2.12703	3.46582E-4	733.13207	15635.983	 	9709.002
565.74	0.89634	0.10366	2.65283	10.55463	-7.32232	32.30801	158.93629	0.12931	7.73308	29.07727	53.37978	10.57497	0.37482	1.92494	11813.78385	2.12703	3.46579E-4	733.1321	15635.969	 	9709.011
565.0	0.89988	0.10012	2.65357	10.55169	-7.34813	32.17133	159.39969	0.12883	7.76246	29.6184	53.42325	10.77658	0.3742	1.93259	12205.40323	2.11674	3.35163E-4	733.25505	15567.205	55.4716	9755.233
560.0	0.91906	0.0809417	2.65783	10.53478	-7.49659	31.42159	161.89667	0.12608	7.93138	32.71345	53.68897	11.93237	0.37079	1.98486	14891.23117	2.04871	2.73073E-4	734.03419	15165.819	80.2772	10004.208
555.0	0.93189	0.0681087	2.66111	10.52182	-7.61046	30.90477	163.57642	0.12404	8.06205	34.98292	53.92573	12.78269	0.36837	2.03814	17676.5719	1.98318	2.28664E-4	734.76549	14847.324	63.699	10170.614
550.0	0.94098	0.0590217	2.66381	10.51116	-7.70398	30.52483	164.77035	0.1224	8.17022	36.72203	54.14604	13.43604	0.36655	2.09238	20667.66531	1.92011	1.9439E-4	735.45938	14577.647	53.9354	10288.522
545.0	0.9477	0.0523017	2.66614	10.50198	-7.78467	30.23099	165.6552	0.121	8.2643	38.10664	54.356	13.9574	0.36511	2.14757	23952.65666	1.8594	1.66712E-4	736.12603	14338.775	47.7744	10375.942
540.0	0.95284	0.0471576	2.66822	10.49376	-7.85679	29.9944	166.33481	0.11977	8.34923	39.24602	54.55909	14.38728	0.36391	2.20373	27614.25605	1.80094	1.43722E-4	736.77429	14120.419	43.6712	10443.16
535.0	0.95689	0.0431086	2.67014	10.48623	-7.92289	29.79791	166.87177	0.11865	8.42801	40.20975	54.75732	14.75155	0.3629	2.26086	31736.28386	1.74464	1.24286E-4	737.41153	13916.337	40.8164	10496.415
530.0	0.96015	0.0398476	2.67193	10.47919	-7.98476	29.62917	167.30554	0.11761	8.50252	41.04464	54.95173	15.06766	0.36201	2.319	36409.22617	1.69037	1.07664E-4	738.04425	13722.565	38.7544	10539.668
525.0	0.96283	0.0371706	2.67363	10.47253	-8.04324	29.48277	167.66284	0.11663	8.57405	41.78188	55.14323	15.34723	0.36122	2.37816	41734.1098	1.63806	9.33426E-5	738.6766	13536.481	37.2168	10575.539
520.0	0.96506	0.0349386	2.67526	10.46614	-8.09931	29.35185	167.96128	0.11569	8.64346	42.4439	55.33219	15.59865	0.3605	2.43838	47825.86832	1.5876	8.0943E-5	739.31319	13356.293	36.0376	10605.815
515.0	0.96695	0.0330526	2.67684	10.45999	-8.15338	29.23365	168.21369	0.11479	8.71137	43.04677	55.51897	15.82793	0.35984	2.49966	54818.00735	1.53892	7.01734E-5	739.9567	13180.743	35.11	10631.755
510.0	0.96856	0.0314406	2.67837	10.45402	-8.2058	29.12588	168.4293	0.11392	8.77822	43.60192	55.70386	16.03933	0.35922	2.56202	62865.70059	1.49193	6.0802E-5	740.60942	13008.92	34.3646	10654.261
505.0	0.96995	0.0300486	2.67986	10.44819	-8.25693	29.02609	168.61452	0.11307	8.84434	44.11837	55.88692	16.23624	0.35864	2.62549	72151.38942	1.44657	5.26387E-5	741.27349	12840.153	33.7534	10674.002
500.0	0.97116	0.0288386	2.68132	10.4425	-8.30693	28.93322	168.77443	0.11223	8.90998	44.60258	56.06831	16.42108	0.35809	2.6901	82889.78826	1.40276	4.55249E-5	741.95018	12673.937	33.2432	10691.48
495.0	0.97222	0.0277766	2.68276	10.43691	-8.356	28.84579	168.91299	0.11142	8.97534	45.0601	56.24807	16.59593	0.35757	2.75587	95335.60764	1.36042	3.93258E-5	742.64076	12509.879	32.8116	10707.085
490.0	0.97316	0.0268406	2.68417	10.43141	-8.40428	28.76297	169.03369	0.11061	9.0406	45.49503	56.42638	16.76232	0.35706	2.82283	109790.6227	1.31951	3.39259E-5	743.34604	12347.675	32.4408	10721.116
485.0	0.97399	0.0260086	2.68556	10.426	-8.45181	28.68452	169.13838	0.10982	9.10586	45.91056	56.60319	16.92145	0.35658	2.89107	126613.7464	1.27992	2.92254E-5	744.06636	12187.081	32.1188	10733.814
480.0	0.97473	0.0252666	2.68694	10.42066	-8.49871	28.60954	169.22905	0.10904	9.17123	46.30936	56.77854	17.07432	0.35611	2.96061	146232.7463	1.24162	2.51376E-5	744.80227	12027.901	31.836	10745.37
479.3	0.97483	0.0251696	2.68713	10.41992	-8.50523	28.59925	169.24057	0.10893	9.18037	46.36374	56.80292	17.09518	0.35605	2.97042	149224.8342	1.23637	2.46107E-5	744.90641	12005.758	 	10746.903
477.59	0.97506	0.0249376	2.6876	10.41811	-8.52108	28.57454	169.2684	0.10866	9.20276	46.49589	56.86245	17.14587	0.35589	2.99455	156816.8686	1.22362	2.33661E-5	745.16188	11951.76	 	10750.57
476.71	0.97697	0.0230286	2.68804	10.41641	-8.53601	28.50509	169.39162	0.10846	9.22027	46.90448	56.90105	17.3026	0.35542	3.01638	161812.6262	1.21334	2.26181E-5	745.85615	11907.82	 	10768.576
476.52	1.0	0.0	2.69233	10.39982	-8.68164	27.29671	170.84592	0.10751	9.30187	50.59791	56.86154	18.7165	0.35169	 	174061.7999	 	2.10209E-5	 	11691.348	 	10979.239
470.0	1.0	0.0	2.69395	10.39353	-8.73687	27.2266	170.83614	0.10658	9.3829	50.95804	57.09204	18.85603	0.35124	 	210176.4499	 	1.72575E-5	 	11496.42	53.1481	 
465.0	1.0	0.0	2.6952	10.38873	-8.77909	27.17285	170.82502	0.10587	9.44584	51.23295	57.26721	18.9626	0.3509	 	243438.2735	 	1.47993E-5	 	11347.286	29.8268	 
460.0	1.0	0.0	2.69644	10.38394	-8.82115	27.11913	170.81072	0.10516	9.50947	51.50666	57.44093	19.06875	0.35055	 	282529.5966	 	1.26653E-5	 	11198.517	29.7538	 
455.0	1.0	0.0	2.69769	10.37916	-8.86308	27.06544	170.79322	0.10445	9.57379	51.77915	57.61322	19.17447	0.35021	 	328569.5029	 	1.08163E-5	 	11050.103	29.6828	 
450.0	1.0	0.0	2.69892	10.3744	-8.90485	27.01178	170.77248	0.10375	9.63881	52.05043	57.7841	19.27978	0.34987	 	382910.4218	 	9.2176E-6	 	10902.039	29.6128	 
445.0	1.0	0.0	2.70016	10.36966	-8.94648	26.95816	170.74848	0.10304	9.70455	52.32049	57.95358	19.38466	0.34953	 	447190.6295	 	7.83807E-6	 	10754.316	29.5446	 
440.0	1.0	0.0	2.70139	10.36494	-8.98797	26.90456	170.72117	0.10234	9.77103	52.58935	58.12167	19.48912	0.3492	 	523399.4264	 	6.65019E-6	 	10606.927	29.4778	 
435.0	1.0	0.0	2.70261	10.36023	-9.02931	26.851	170.69053	0.10164	9.83826	52.85709	58.28851	19.59319	0.34886	 	613958.2613	 	5.62954E-6	 	10459.866	29.4122	 
430.0	1.0	0.0	2.70384	10.35554	-9.07051	26.79748	170.65653	0.10095	9.90624	53.12353	58.4539	19.69681	0.34853	 	721821.9715	 	4.7545E-6	 	10313.125	29.3482	 
425.0	1.0	0.0	2.70506	10.35086	-9.11156	26.74398	170.61912	0.10025	9.975	53.38876	58.61795	19.8	0.3482	 	850605.4653	 	4.00597E-6	 	10166.699	29.2852	 
420.0	1.0	0.0	2.70628	10.3462	-9.15246	26.69052	170.57827	0.0995565	10.04455	53.65278	58.78068	19.90276	0.34787	 	1004742.678	 	3.36712E-6	 	10020.578	29.2242	 
415.0	1.0	0.0	2.70749	10.34156	-9.19322	26.63709	170.53395	0.098864	10.1149	53.91559	58.94211	20.0051	0.34755	 	1189686.577	 	2.82317E-6	 	9874.759	29.1638	 
410.0	1.0	0.0	2.7087	10.33694	-9.23384	26.58369	170.48611	0.0981732	10.18607	54.1772	59.10225	20.10701	0.34722	 	1412161.547	 	2.36112E-6	 	9729.237	29.1044	 
405.0	1.0	0.0	2.70991	10.33233	-9.27431	26.53032	170.43472	0.0974841	10.25808	54.4376	59.26111	20.20849	0.3469	 	1680482.786	 	1.9696E-6	 	9584.013	29.0448	 
400.0	1.0	0.0	2.71112	10.32773	-9.31464	26.47698	170.37974	0.0967966	10.33094	54.69679	59.41872	20.30955	0.34658	 	2004961.721	 	1.63867E-6	 	9439.084	28.9858	 
395.0	1.0	0.0	2.71232	10.32316	-9.35483	26.42368	170.32113	0.0961107	10.40467	54.95477	59.57508	20.41018	0.34626	 	2398422.169	 	1.35967E-6	 	9294.451	28.9266	 
390.0	1.0	0.0	2.71352	10.3186	-9.39487	26.37041	170.25885	0.0954263	10.47929	55.21155	59.73021	20.51038	0.34594	 	2876859.533	 	1.12507E-6	 	9150.112	28.8678	 
385.0	1.0	0.0	2.71471	10.31405	-9.43476	26.31718	170.19285	0.0947436	10.55481	55.46713	59.88412	20.61015	0.34563	 	3460285.343	 	9.28324E-7	 	9006.067	28.809	 
380.0	1.0	0.0	2.71591	10.30953	-9.47452	26.26397	170.12308	0.0940623	10.63125	55.7215	60.03683	20.70949	0.34531	 	4173812.75	 	7.63777E-7	 	8862.315	28.7504	 
375.0	1.0	0.0	2.7171	10.30502	-9.51413	26.2108	170.04951	0.0933827	10.70863	55.97467	60.18834	20.80841	0.345	 	5049056.336	 	6.26545E-7	 	8718.856	28.6918	 
370.0	1.0	0.0	2.71828	10.30052	-9.55359	26.15766	169.97209	0.0927045	10.78696	56.22663	60.33868	20.90689	0.34469	 	6125943.354	 	5.1242E-7	 	8575.687	28.6338	 
365.0	1.0	0.0	2.71946	10.29604	-9.59292	26.10455	169.89076	0.0920278	10.86628	56.47739	60.48785	21.00494	0.34438	 	7455065.407	 	4.1779E-7	 	8432.81	28.5754	 
360.0	1.0	0.0	2.72064	10.29158	-9.6321	26.05147	169.80549	0.0913526	10.94659	56.72695	60.63587	21.10256	0.34408	 	9100742.612	 	3.3956E-7	 	8290.223	28.5174	 
355.0	1.0	0.0	2.72182	10.28714	-9.67113	25.99843	169.71621	0.0906789	11.02793	56.97531	60.78275	21.19974	0.34377	 	1.114503049E7	 	2.75086E-7	 	8147.925	28.4596	 
350.0	1.0	0.0	2.72299	10.28271	-9.71003	25.94541	169.62288	0.0900066	11.1103	57.22246	60.9285	21.2965	0.34347	 	1.369297898E7	 	2.22117E-7	 	8005.916	28.4018	 
345.0	1.0	0.0	2.72416	10.27829	-9.74878	25.89243	169.52543	0.0893357	11.19373	57.46841	61.07314	21.39282	0.34317	 	1.687956081E7	 	1.78739E-7	 	7864.195	28.3442	 
340.0	1.0	0.0	2.72533	10.2739	-9.78739	25.83949	169.42383	0.0886662	11.27825	57.71317	61.21668	21.48871	0.34287	 	2.087883451E7	 	1.43333E-7	 	7722.761	28.2868	 
335.0	1.0	0.0	2.72649	10.26952	-9.82585	25.78657	169.318	0.0879982	11.36387	57.95671	61.35911	21.58416	0.34258	 	2.591611036E7	 	1.14532E-7	 	7581.615	28.2292	 
330.0	1.0	0.0	2.72765	10.26515	-9.86418	25.73369	169.20788	0.0873315	11.45062	58.19906	61.50047	21.67918	0.34228	 	3.2284169E7	 	9.11848E-8	 	7440.756	28.1718	 
325.0	1.0	0.0	2.7288	10.2608	-9.90236	25.68084	169.09343	0.0866661	11.53853	58.44021	61.64076	21.77376	0.34199	 	4.036497167E7	 	7.23256E-8	 	7300.182	28.1148	 
320.0	1.0	0.0	2.72996	10.25647	-9.9404	25.62802	168.97457	0.0860021	11.62762	58.68015	61.77999	21.8679	0.3417	 	5.065884482E7	 	5.71473E-8	 	7159.894	28.0576	 
315.0	1.0	0.0	2.7311	10.25215	-9.97829	25.57523	168.85124	0.0853395	11.71791	58.9189	61.91817	21.96161	0.34141	 	6.382388206E7	 	4.49771E-8	 	7019.891	28.0006	 
310.0	1.0	0.0	2.73225	10.24785	-10.01605	25.52248	168.72337	0.0846781	11.80943	59.15645	62.05531	22.05488	0.34112	 	8.072937659E7	 	3.52562E-8	 	6880.172	27.9438	 
305.0	1.0	0.0	2.73339	10.24357	-10.05366	25.46976	168.59089	0.084018	11.90221	59.39279	62.19143	22.14772	0.34083	 	1.025286091E8	 	2.75221E-8	 	6740.738	27.8868	 
300.0	1.0	0.0	2.73453	10.2393	-10.09113	25.41707	168.45373	0.0833592	11.99627	59.62794	62.32654	22.24011	0.34055	 	1.307584646E8	 	2.13937E-8	 	6601.588	27.83	 
295.0	1.0	0.0	2.73567	10.23505	-10.12846	25.36441	168.31181	0.0827017	12.09165	59.86189	62.46064	22.33207	0.34027	 	1.67476416E8	 	1.65575E-8	 	6462.722	27.7732	 
290.0	1.0	0.0	2.7368	10.23082	-10.16565	25.31179	168.16506	0.0820454	12.18837	60.09464	62.59374	22.42358	0.33999	 	2.154498137E8	 	1.27575E-8	 	6324.138	27.7168	 
285.0	1.0	0.0	2.73793	10.2266	-10.2027	25.2592	168.0134	0.0813904	12.28646	60.32619	62.72586	22.51466	0.33971	 	2.784187626E8	 	9.78451E-9	 	6185.838	27.66	 
280.0	1.0	0.0	2.73906	10.22239	-10.23961	25.20663	167.85675	0.0807366	12.38596	60.55655	62.85701	22.60529	0.33943	 	3.614630713E8	 	7.46906E-9	 	6047.821	27.6034	 
275.0	1.0	0.0	2.74018	10.21821	-10.27637	25.15411	167.69502	0.0800839	12.4869	60.7857	62.98719	22.69548	0.33916	 	4.715171744E8	 	5.67399E-9	 	5910.086	27.547	 
270.0	1.0	0.0	2.7413	10.21404	-10.313	25.10161	167.52812	0.0794325	12.58931	61.01366	63.11642	22.78524	0.33889	 	6.180966063E8	 	4.28894E-9	 	5772.634	27.4904	 
265.0	1.0	0.0	2.74241	10.20988	-10.34948	25.04915	167.35595	0.0787822	12.69322	61.24042	63.2447	22.87455	0.33862	 	8.143286261E8	 	3.22545E-9	 	5635.464	27.434	 
260.0	1.0	0.0	2.74352	10.20574	-10.38583	24.99672	167.17844	0.0781331	12.79867	61.46599	63.37204	22.96341	0.33835	 	1.078422659E9	 	2.41294E-9	 	5498.577	27.3774	 
255.0	1.0	0.0	2.74463	10.20162	-10.42203	24.94432	166.99547	0.0774852	12.90569	61.69036	63.49846	23.05183	0.33808	 	1.435780511E9	 	1.79538E-9	 	5361.973	27.3208	 
250.0	1.0	0.0	2.74574	10.19751	-10.45809	24.89195	166.80694	0.0768384	13.01433	61.91353	63.62397	23.13981	0.33781	 	1.922042901E9	 	1.32846E-9	 	5225.651	27.2644	 
245.0	1.0	0.0	2.74684	10.19342	-10.49401	24.83962	166.61275	0.0761927	13.12462	62.13551	63.74856	23.22735	0.33755	 	2.58751488E9	 	9.77371E-10	 	5089.611	27.208	 
240.0	1.0	0.0	2.74794	10.18935	-10.5298	24.78732	166.41279	0.0755481	13.2366	62.35628	63.87225	23.31444	0.33729	 	3.503634982E9	 	7.14845E-10	 	4953.855	27.1512	 
235.0	1.0	0.0	2.74903	10.18529	-10.56544	24.73504	166.20694	0.0749047	13.3503	62.57587	63.99506	23.40108	0.33703	 	4.772493514E9	 	5.19677E-10	 	4818.381	27.0948	 
230.0	1.0	0.0	2.75013	10.18124	-10.60094	24.68281	165.99509	0.0742623	13.46579	62.79426	64.11698	23.48728	0.33677	 	6.540930926E9	 	3.75444E-10	 	4683.191	27.038	 
225.0	1.0	0.0	2.75121	10.17722	-10.6363	24.6306	165.7771	0.073621	13.58308	63.01145	64.23803	23.57303	0.33652	 	9.02156393E9	 	2.69504E-10	 	4548.285	26.9812	 
220.0	1.0	0.0	2.7523	10.17321	-10.67153	24.57843	165.55286	0.0729808	13.70224	63.22745	64.35821	23.65833	0.33626	 	1.2524399999999998E10	 	1.92181E-10	 	4413.663	26.9244	 
215.0	1.0	0.0	2.75338	10.16921	-10.70661	24.52629	165.32223	0.0723416	13.8233	63.44225	64.47754	23.74319	0.33601	 	1.75044E10	 	1.36111E-10	 	4279.326	26.8674	 
210.0	1.0	0.0	2.75446	10.16523	-10.74155	24.47418	165.08506	0.0717035	13.94632	63.65586	64.59602	23.8276	0.33576	 	2.4634899999999996E10	 	9.57235E-11	 	4145.274	26.8104	 
205.0	1.0	0.0	2.75553	10.16127	-10.77636	24.4221	164.84121	0.0710664	14.07134	63.86828	64.71366	23.91156	0.33551	 	3.49185E10	 	6.68337E-11	 	4011.508	26.7532	 
