T (C)	Fraction solid (wt)-TOTAL	Fraction liquid (wt)-LIQUID	Density (g/(cm)^3)-TOTAL	Molar volume (cm^3)-TOTAL	Volume change (%)-  	Average expansion coeff. (10e-6 1/K)-  	Thermal conductivity (W/(m*K))-TOTAL	Electrical resistivity (10e-6 Ohm*m)-TOTAL	Electrical conductivity (10e6 1/(Ohm*m))-TOTAL	Young's modulus (GPa)-TOTAL	Bulk modulus (GPa)-TOTAL	Shear modulus(GPa)-TOTAL	Poisson's ratio-TOTAL	Liquid viscosity (mPa s)-  	Total viscosity (mPa s)-  	Liquid diffusivity (10e-9 (m^2)/s)-  	Total diffusivity (10e-9 (m^2)/s)-  	Surface Tension (mN/m)-  	Enthalpy (J/mole)-TOTAL	Specific heat (J/(mole K))-TOTAL	Latent heat (J/mole)-TOTAL
700.0	0.0039	0.9961	2.44093	11.43699	0.0	66.12906	88.14341	0.27049	3.69695	5.60732E-9	49.15424	1.87019E-9	0.49913	1.25956	1.25956	3.77093	3.77093	719.72955	29407.612	 	0.0
695.0	0.00407	0.99593	2.44264	11.42889	-0.0708139	66.22308	87.97058	0.26963	3.70876	6.73114E-9	49.22386	2.24508E-9	0.49909	1.27286	1.27286	3.71235	3.71235	720.74284	29245.281	32.4662	3.203
690.0	0.00424	0.99576	2.44436	11.42084	-0.14126	66.32058	87.79782	0.26877	3.72069	7.97647E-9	49.29355	2.66051E-9	0.49905	1.28645	1.28645	3.65417	3.65417	721.75574	29083.053	32.4456	6.3
685.0	0.0044	0.9956	2.44607	11.41292	-0.21044	66.42682	87.62597	0.2679	3.73279	9.34323E-9	49.36378	3.11646E-9	0.49901	1.30033	1.30033	3.5964	3.5964	722.76817	28920.925	32.4256	9.299
680.0	0.00456	0.99544	2.44777	11.40495	-0.28017	66.53156	87.45337	0.26702	3.74498	1.08322E-8	49.43356	3.6132E-9	0.49898	1.31451	1.31451	3.53902	3.53902	723.78026	28758.892	32.4066	12.204
676.1	0.00467	0.99533	2.4491	11.3988	-0.33395	66.61749	87.31921	0.26634	3.75458	1.20737E-8	49.48819	4.02738E-9	0.49895	1.32578	1.32578	3.4946	3.4946	724.56861	28632.697	32.3889	14.399
675.0	0.00503	0.99497	2.44953	11.39672	-0.35212	66.62493	87.28455	0.26614	3.75746	1.24653E-8	49.50466	4.15827E-9	0.49886	1.32878	1.32878	3.48266	3.48266	724.79397	28591.315	37.4918	20.654
670.0	0.0066	0.9934	2.45149	11.38771	-0.4309	66.67975	87.12936	0.26521	3.77066	1.48707E-8	49.5814	4.962E-9	0.49846	1.34258	1.34258	3.42867	3.42867	725.81407	28404.978	37.2674	47.865
665.0	0.00806	0.99194	2.45341	11.37878	-0.50897	66.7396	86.97239	0.26428	3.78393	2.14133E-8	49.65867	7.14684E-9	0.49809	1.35677	1.35677	3.37485	3.37485	726.83325	28220.581	36.8794	73.138
660.0	0.00941	0.99059	2.45532	11.36993	-0.5864	66.80425	86.81376	0.26335	3.79727	3.79413E-8	49.73616	1.26661E-8	0.49775	1.37133	1.37133	3.3212	3.3212	727.85153	28037.965	36.5232	96.62
658.89	0.0097	0.9903	2.45574	11.36796	-0.6036	66.81895	86.7782	0.26314	3.80024	4.35728E-8	49.75337	1.45468E-8	0.49768	1.37463	1.37463	3.30929	3.30929	728.07801	27997.601	 	101.586
658.89	0.0097	0.9903	2.45574	11.36796	-0.60361	66.81895	86.77818	0.26314	3.80024	4.35752E-8	49.75337	1.45476E-8	0.49768	1.37463	1.37463	3.30928	3.30928	728.07814	27997.576	 	101.589
655.0	0.0107	0.9893	2.45721	11.36119	-0.66282	66.87596	86.65487	0.26242	3.81073	6.89479E-8	49.8138	2.30222E-8	0.49742	1.38626	1.38626	3.26783	3.26783	728.86959	27856.63	36.267	119.014
650.0	0.01191	0.98809	2.45909	11.35248	-0.73898	66.95039	86.49443	0.26149	3.82428	1.21094E-7	49.89129	4.04423E-8	0.49711	1.40158	1.40158	3.2147	3.2147	729.88693	27676.992	35.9276	140.034
645.0	0.01303	0.98697	2.46095	11.34392	-0.81383	67.034	86.33326	0.26056	3.83794	1.98986E-7	49.96916	6.64693E-8	0.49683	1.41731	1.41731	3.16181	3.16181	730.87973	27499.182	35.562	159.56
640.0	0.01408	0.98592	2.46279	11.33542	-0.88812	67.12241	86.17065	0.25963	3.85169	3.05527E-7	50.0469	1.02076E-7	0.49656	1.43346	1.43346	3.10916	3.10916	731.89647	27323.093	35.2178	177.713
638.15	0.01444	0.98556	2.46346	11.33232	-0.91521	67.15776	86.11044	0.25928	3.8568	3.52113E-7	50.07572	1.17648E-7	0.49647	1.43954	1.46355	3.08976	3.03908	732.27207	27258.449	 	184.06
630.0	0.25538	0.74462	2.50488	11.14492	-2.55376	57.82588	98.42095	0.22482	4.44797	0.12563	50.34386	0.0428201	0.46696	1.47742	21.83413	2.98361	0.20189	731.56051	24439.847	288.325	2746.124
625.0	0.38169	0.61831	2.52728	11.04622	-3.41677	52.87126	106.19462	0.20721	4.826	0.70548	50.63406	0.24312	0.45091	1.50478	112.64236	2.91314	0.0389165	730.86169	22944.494	299.071	4084.58
623.66	0.40994	0.59006	2.53239	11.02386	-3.61225	51.75529	108.13211	0.20319	4.92139	0.95771	50.70861	0.33087	0.44725	1.51242	153.38826	2.8941	0.0285362	730.6779	22603.12	 	4383.996
620.0	0.48661	0.51339	2.54648	10.96288	-4.14539	48.68698	113.69195	0.19247	5.19564	1.97988	50.89054	0.68895	0.43688	1.53171	325.30655	2.84601	0.0134004	730.11268	21666.658	255.567	5205.864
615.0	0.57017	0.42983	2.56224	10.89544	-4.73514	45.32149	120.28392	0.1809	5.52784	3.89888	51.1225	1.36774	0.4253	1.55911	675.7411	2.78032	0.00641494	729.40458	20616.269	210.078	6100.045
610.0	0.63358	0.36642	2.57461	10.8431	-5.19271	42.75247	126.04454	0.17166	5.82537	6.14948	51.34285	2.171	0.41628	1.58751	1139.10511	2.71522	0.00378405	728.80919	19782.414	166.771	6778.036
605.0	0.68266	0.31734	2.58453	10.80148	-5.55668	40.74915	130.88191	0.16438	6.08338	8.5153	51.55572	3.02148	0.40913	1.61682	1700.58831	2.65091	0.00252032	728.32477	19102.246	136.034	7302.684
602.46	0.70321	0.29679	2.58882	10.78359	-5.7131	39.90439	133.01129	0.16128	6.20027	9.7013	51.66255	3.44977	0.40608	1.63206	2018.1697	2.61856	0.00211758	728.12083	18803.538	 	7522.586
602.45	0.70329	0.29671	2.58884	10.7835	-5.71384	39.90027	133.0193	0.16127	6.20072	9.70605	51.66291	3.45149	0.40607	1.63212	2019.5066	2.61844	0.00211616	728.12011	18802.384	 	7523.426
600.0	0.72201	0.27799	2.59275	10.76724	-5.85601	39.13587	135.03306	0.15842	6.31226	10.895	51.76826	3.8819	0.40331	1.64661	2360.61173	2.58812	0.00180531	727.91332	18525.813	115.287	7723.936
595.0	0.75456	0.24544	2.59975	10.73824	-6.10959	37.7977	138.6379	0.15342	6.5181	13.24283	51.97859	4.7349	0.39843	1.67703	3127.8229	2.52663	0.00135469	727.57143	18023.194	100.524	8071.716
590.0	0.78081	0.21919	2.60566	10.71388	-6.32254	36.7076	141.64495	0.1493	6.69806	15.43013	52.18541	5.53292	0.39439	1.70862	3989.39689	2.46563	0.001056	727.32871	17588.04	87.0308	8352.369
586.77	0.79511	0.20489	2.60901	10.70015	-6.44262	36.11049	143.32005	0.147	6.80269	16.74546	52.31779	6.01424	0.39215	1.72963	4598.22268	2.42657	9.1276E-4	727.2198	17335.417	 	8505.474
585.0	0.80227	0.19773	2.61073	10.69308	-6.50447	35.80741	144.16592	0.14584	6.85699	17.44171	52.38979	6.26947	0.391	1.74127	4953.09949	2.40538	8.45615E-4	727.17191	17203.3	76.948	8582.945
580.0	0.82026	0.17974	2.6152	10.67482	-6.66412	35.04275	146.30938	0.14286	6.99972	19.30318	52.59077	6.95321	0.38808	1.77496	6037.61116	2.34597	6.89679E-4	727.08993	16855.235	69.613	8777.182
575.0	0.83537	0.16463	2.61915	10.65871	-6.805	34.39316	148.13762	0.14027	7.12897	21.00603	52.79025	7.58037	0.38555	1.80999	7255.08287	2.28709	5.70581E-4	727.0811	16538.472	63.3526	8940.449
570.0	0.84821	0.15179	2.62271	10.64426	-6.93129	33.83285	149.71033	0.13798	7.24738	22.5672	52.98825	8.15674	0.38335	1.84636	8626.67006	2.22882	4.77033E-4	727.13814	16246.387	58.417	9079.371
565.0	0.85923	0.14077	2.62594	10.63115	-7.04597	33.34338	151.0717	0.13593	7.35691	24.00088	53.18482	8.68719	0.3814	1.88407	10176.07981	2.17126	4.02002E-4	727.25497	15974.085	54.4604	9198.839
561.48	0.86607	0.13393	2.62805	10.62261	-7.12061	33.03656	151.92143	0.1346	7.42952	24.93923	53.32256	9.03496	0.38015	1.91146	11388.62568	2.13115	3.57691E-4	727.36999	15792.142	 	9273.275
561.48	0.86607	0.13393	2.62805	10.62261	-7.12061	33.03656	151.92142	0.1346	7.42952	24.93923	53.32256	9.03496	0.38015	1.91146	11388.64149	2.13115	3.5769E-4	727.36999	15792.137	 	9273.278
560.0	0.87162	0.12838	2.6293	10.61755	-7.16483	32.81531	152.5999	0.13376	7.47593	25.70304	53.40166	9.31818	0.37919	1.92374	12089.81453	2.11379	3.36349E-4	727.378	15677.243	59.3684	9343.174
555.0	0.88699	0.11301	2.63301	10.60262	-7.29542	32.19358	154.47572	0.13135	7.61351	27.94024	53.65083	10.14939	0.37645	1.96595	14568.22594	2.056	2.77453E-4	727.43674	15332.778	68.893	9535.455
550.0	0.89845	0.10155	2.63611	10.59014	-7.40454	31.71453	155.87716	0.12938	7.72925	29.74759	53.88082	10.82272	0.37431	2.00918	17255.31844	1.99962	2.32832E-4	727.54605	15038.446	58.8664	9677.926
545.0	0.90735	0.092651	2.63881	10.5793	-7.49927	31.33098	156.96507	0.1277	7.83076	31.25325	54.09856	11.38492	0.37257	2.05346	20225.4921	1.94461	1.97433E-4	727.70191	14776.783	52.3326	9788.047
540.0	0.91448	0.085516	2.64123	10.5696	-7.5841	31.01257	157.83368	0.12622	7.92251	32.5398	54.30768	11.86626	0.37111	2.09887	23550.61636	1.89091	1.68521E-4	727.90119	14537.604	47.8358	9876.0
535.0	0.92035	0.079655	2.64345	10.56071	-7.66182	30.74058	158.54257	0.12489	8.00733	33.66189	54.51047	12.28683	0.36984	2.14544	27305.85295	1.83849	1.44452E-4	728.14103	14314.589	44.603	9948.102
530.0	0.92526	0.074742	2.64552	10.55244	-7.73411	30.50389	159.13167	0.12365	8.08712	34.65737	54.70847	12.66055	0.36872	2.19323	31574.04239	1.78731	1.24152E-4	728.4185	14103.618	42.1942	10008.471
525.0	0.92944	0.070556	2.64748	10.54466	-7.80213	30.29471	159.62789	0.1225	8.16316	35.5534	54.90254	12.99744	0.36771	2.2423	36448.64868	1.73731	1.06878E-4	728.73105	13901.894	40.3448	10059.9
520.0	0.93306	0.066942	2.64934	10.53726	-7.86684	30.10667	160.05042	0.12141	8.23636	36.36934	55.0934	13.30465	0.36679	2.29269	42036.68197	1.68848	9.20902E-5	729.07665	13707.451	38.8886	10104.352
515.0	0.93622	0.063785	2.65113	10.53017	-7.92888	29.93533	160.41329	0.12037	8.3074	37.12026	55.28148	13.58777	0.36594	2.34445	48462.95563	1.64079	7.93754E-5	729.45342	13518.868	37.7166	10143.245
510.0	0.939	0.061002	2.65285	10.52332	-7.98872	29.77753	160.72692	0.11938	8.37679	37.817	55.4671	13.85079	0.36516	2.39762	55872.97424	1.59423	6.84116E-5	729.85965	13335.094	36.7548	10177.626
505.0	0.94147	0.058528	2.65452	10.5167	-8.04659	29.63203	160.99932	0.11841	8.4449	38.468	55.65056	14.09684	0.36442	2.45227	64438.11452	1.54875	5.89396E-5	730.29347	13155.33	35.9528	10208.29
500.0	0.94369	0.056313	2.65614	10.51026	-8.10295	29.49553	161.23632	0.11748	8.51203	39.08045	55.83195	14.32859	0.36372	2.50844	74360.58139	1.50434	5.07467E-5	730.75396	12978.959	35.2742	10235.85
495.0	0.94568	0.054318	2.65773	10.50398	-8.15786	29.36767	161.44316	0.11657	8.57842	39.65952	56.0115	14.54796	0.36306	2.5662	85880.04919	1.46098	4.36556E-5	731.23956	12805.444	34.703	10260.842
490.0	0.94749	0.05251	2.65929	10.49785	-8.21149	29.24756	161.62355	0.11568	8.64428	40.20967	56.18929	14.75659	0.36243	2.62561	99281.16769	1.41862	3.75171E-5	731.74906	12634.561	34.1766	10283.483
485.23	0.94906	0.050939	2.66074	10.4921	-8.26172	29.13808	161.77471	0.11485	8.70676	40.71054	56.35726	14.94673	0.36185	2.68385	114122.7474	1.37917	3.24341E-5	732.25672	12473.621	 	10303.316
485.0	0.96558	0.034425	2.66279	10.48404	-8.33224	28.57329	162.89373	0.11403	8.76967	43.78689	56.42742	16.12036	0.35812	2.67596	121637.3853	1.38281	3.04211E-5	731.87545	12312.531	64.406	10457.55
482.17	1.0	0.0	2.66767	10.46486	-8.49991	27.36403	165.16926	0.11204	8.92551	50.98154	56.66486	18.88136	0.35005	 	148150.3495	 	2.48837E-5	 	11909.107	 	10777.311
475.0	1.0	0.0	2.66945	10.45787	-8.56097	27.28703	165.09379	0.11103	9.00691	51.38616	56.92645	19.0382	0.34955	 	181762.5319	 	2.00896E-5	 	11694.021	61.851	 
470.0	1.0	0.0	2.67069	10.45302	-8.60339	27.23336	165.03723	0.11032	9.06441	51.66686	57.10705	19.14707	0.34921	 	210114.2307	 	1.72627E-5	 	11544.464	29.9114	 
465.0	1.0	0.0	2.67192	10.44819	-8.64566	27.17973	164.97742	0.10962	9.1225	51.94632	57.28616	19.25551	0.34887	 	243365.7143	 	1.48038E-5	 	11395.278	29.8372	 
460.0	1.0	0.0	2.67316	10.44337	-8.68778	27.12612	164.91433	0.10892	9.1812	52.22455	57.4638	19.36352	0.34853	 	282444.8054	 	1.26691E-5	 	11246.454	29.7648	 
455.0	1.0	0.0	2.67439	10.43857	-8.72976	27.07255	164.84794	0.10822	9.24052	52.50153	57.63998	19.4711	0.34819	 	328470.2102	 	1.08196E-5	 	11097.985	29.6938	 
450.0	1.0	0.0	2.67561	10.43379	-8.7716	27.01901	164.77821	0.10752	9.30048	52.77728	57.81471	19.57825	0.34786	 	382793.899	 	9.22041E-6	 	10949.864	29.6242	 
445.0	1.0	0.0	2.67684	10.42902	-8.81328	26.9655	164.70513	0.10683	9.36108	53.05179	57.98801	19.68496	0.34752	 	447053.5884	 	7.84047E-6	 	10802.084	29.556	 
440.0	1.0	0.0	2.67806	10.42427	-8.85483	26.91203	164.62865	0.10613	9.42233	53.32507	58.15991	19.79124	0.34719	 	523237.8949	 	6.65225E-6	 	10654.638	29.4892	 
435.0	1.0	0.0	2.67927	10.41953	-8.89622	26.85858	164.54875	0.10544	9.48426	53.59711	58.33041	19.89709	0.34686	 	613767.4299	 	5.63129E-6	 	10507.519	29.4238	 
430.0	1.0	0.0	2.68049	10.41481	-8.93748	26.80517	164.4654	0.10475	9.54686	53.86791	58.49954	20.00251	0.34653	 	721596.002	 	4.75599E-6	 	10360.719	29.36	 
425.0	1.0	0.0	2.6817	10.41011	-8.97859	26.75179	164.37857	0.10406	9.61015	54.13748	58.6673	20.10749	0.3462	 	850337.2532	 	4.00723E-6	 	10214.233	29.2972	 
420.0	1.0	0.0	2.68291	10.40543	-9.01955	26.69844	164.28821	0.10337	9.67416	54.40582	58.83371	20.21204	0.34588	 	1004423.555	 	3.36819E-6	 	10068.052	29.2362	 
415.0	1.0	0.0	2.68411	10.40076	-9.06037	26.64512	164.19431	0.10268	9.73888	54.67293	58.9988	20.31615	0.34555	 	1189305.94	 	2.82408E-6	 	9922.173	29.1758	 
410.0	1.0	0.0	2.68531	10.39611	-9.10105	26.59184	164.09683	0.102	9.80433	54.9388	59.16256	20.41982	0.34523	 	1411706.39	 	2.36188E-6	 	9776.591	29.1164	 
405.0	1.0	0.0	2.68651	10.39147	-9.14158	26.53858	163.99573	0.10131	9.87053	55.20344	59.32502	20.52306	0.34491	 	1679937.113	 	1.97024E-6	 	9631.305	29.0572	 
400.0	1.0	0.0	2.6877	10.38685	-9.18196	26.48536	163.89097	0.10063	9.9375	55.46685	59.4862	20.62586	0.34459	 	2004305.803	 	1.63921E-6	 	9486.316	28.9978	 
395.0	1.0	0.0	2.68889	10.38225	-9.22221	26.43217	163.78251	0.0999476	10.00524	55.72903	59.6461	20.72823	0.34428	 	2397631.602	 	1.36012E-6	 	9341.621	28.939	 
390.0	1.0	0.0	2.69008	10.37766	-9.26231	26.37901	163.67033	0.0992677	10.07377	55.98998	59.80474	20.83016	0.34396	 	2875904.046	 	1.12544E-6	 	9197.221	28.88	 
385.0	1.0	0.0	2.69127	10.37309	-9.30226	26.32589	163.55438	0.0985891	10.14311	56.2497	59.96213	20.93165	0.34365	 	3459127.269	 	9.28635E-7	 	9053.114	28.8214	 
380.0	1.0	0.0	2.69245	10.36854	-9.34207	26.27279	163.43462	0.0979118	10.21328	56.5082	60.11829	21.0327	0.34334	 	4172405.082	 	7.64035E-7	 	8909.3	28.7628	 
375.0	1.0	0.0	2.69363	10.364	-9.38174	26.21973	163.311	0.0972358	10.28428	56.76546	60.27323	21.13331	0.34303	 	5047340.222	 	6.26758E-7	 	8765.778	28.7044	 
370.0	1.0	0.0	2.6948	10.35948	-9.42127	26.1667	163.18349	0.0965611	10.35614	57.02149	60.42696	21.23348	0.34273	 	6123844.88	 	5.12596E-7	 	8622.547	28.6462	 
365.0	1.0	0.0	2.69598	10.35498	-9.46065	26.1137	163.05205	0.0958876	10.42887	57.2763	60.5795	21.33321	0.34242	 	7452491.441	 	4.17934E-7	 	8479.607	28.588	 
360.0	1.0	0.0	2.69714	10.35049	-9.49989	26.06073	162.91661	0.0952154	10.5025	57.52988	60.73086	21.4325	0.34212	 	9097575.413	 	3.39678E-7	 	8336.957	28.53	 
355.0	1.0	0.0	2.69831	10.34602	-9.53899	26.0078	162.77715	0.0945444	10.57704	57.78224	60.88105	21.53135	0.34182	 	1.11411207E7	 	2.75183E-7	 	8194.596	28.4722	 
350.0	1.0	0.0	2.69947	10.34156	-9.57794	25.9549	162.6336	0.0938747	10.6525	58.03337	61.03008	21.62975	0.34152	 	1.368813644E7	 	2.22195E-7	 	8052.523	28.4146	 
345.0	1.0	0.0	2.70063	10.33713	-9.61675	25.90202	162.48593	0.0932061	10.72892	58.28327	61.17797	21.72772	0.34122	 	1.687354262E7	 	1.78803E-7	 	7910.739	28.3568	 
340.0	1.0	0.0	2.70179	10.3327	-9.65542	25.84918	162.33408	0.0925386	10.8063	58.53195	61.32473	21.82524	0.34092	 	2.087132918E7	 	1.43385E-7	 	7769.242	28.2994	 
335.0	1.0	0.0	2.70294	10.3283	-9.69394	25.79637	162.17799	0.0918724	10.88467	58.7794	61.47037	21.92232	0.34063	 	2.590671702E7	 	1.14574E-7	 	7628.032	28.242	 
330.0	1.0	0.0	2.70409	10.32391	-9.73233	25.7436	162.01762	0.0912072	10.96405	59.02563	61.61489	22.01895	0.34034	 	3.22723697E7	 	9.12181E-8	 	7487.108	28.1848	 
325.0	1.0	0.0	2.70524	10.31953	-9.77057	25.69085	161.85289	0.0905432	11.04445	59.27064	61.75833	22.11514	0.34005	 	4.035009459E7	 	7.23523E-8	 	7346.47	28.1276	 
320.0	1.0	0.0	2.70638	10.31518	-9.80867	25.63814	161.68377	0.0898802	11.12592	59.51442	61.90067	22.21088	0.33976	 	5.064001505E7	 	5.71686E-8	 	7206.117	28.0706	 
315.0	1.0	0.0	2.70752	10.31084	-9.84663	25.58546	161.51018	0.0892184	11.20845	59.75697	62.04194	22.30618	0.33947	 	6.379995549E7	 	4.4994E-8	 	7066.049	28.0136	 
310.0	1.0	0.0	2.70865	10.30651	-9.88444	25.53281	161.33207	0.0885576	11.29209	59.99831	62.18215	22.40103	0.33919	 	8.069885074E7	 	3.52695E-8	 	6926.265	27.9568	 
305.0	1.0	0.0	2.70979	10.3022	-9.92212	25.48019	161.14936	0.0878978	11.37685	60.23842	62.3213	22.49543	0.3389	 	1.024895024E8	 	2.75326E-8	 	6786.766	27.8998	 
300.0	1.0	0.0	2.71092	10.29791	-9.95965	25.42761	160.962	0.0872391	11.46275	60.47731	62.45941	22.58939	0.33862	 	1.307081516E8	 	2.14019E-8	 	6647.55	27.8432	 
295.0	1.0	0.0	2.71204	10.29363	-9.99704	25.37505	160.76991	0.0865813	11.54983	60.71498	62.59649	22.68289	0.33834	 	1.67411403E8	 	1.6564E-8	 	6508.617	27.7866	 
290.0	1.0	0.0	2.71317	10.28937	-10.03429	25.32253	160.57302	0.0859246	11.63811	60.95143	62.73254	22.77595	0.33807	 	2.153654293E8	 	1.27625E-8	 	6369.967	27.73	 
285.0	1.0	0.0	2.71429	10.28513	-10.0714	25.27004	160.37127	0.0852689	11.72761	61.18665	62.86759	22.86856	0.33779	 	2.783087306E8	 	9.78838E-9	 	6231.601	27.6732	 
280.0	1.0	0.0	2.7154	10.2809	-10.10837	25.21758	160.16456	0.0846141	11.81837	61.42066	63.00163	22.96073	0.33752	 	3.613189183E8	 	7.47204E-9	 	6093.516	27.617	 
275.0	1.0	0.0	2.71651	10.27669	-10.14519	25.16516	159.95282	0.0839602	11.9104	61.65345	63.13468	23.05244	0.33724	 	4.713274027E8	 	5.67628E-9	 	5955.715	27.5602	 
270.0	1.0	0.0	2.71762	10.27249	-10.18188	25.11276	159.73597	0.0833073	12.00375	61.88501	63.26675	23.1437	0.33697	 	6.178455329E8	 	4.29068E-9	 	5818.195	27.504	 
265.0	1.0	0.0	2.71873	10.26831	-10.21842	25.0604	159.51393	0.0826553	12.09843	62.11536	63.39785	23.23451	0.3367	 	8.139947452E8	 	3.22677E-9	 	5680.958	27.4474	 
260.0	1.0	0.0	2.71983	10.26415	-10.25483	25.00807	159.2866	0.0820042	12.19449	62.34448	63.52799	23.32486	0.33644	 	1.077976319E9	 	2.41394E-9	 	5544.002	27.3912	 
255.0	1.0	0.0	2.72093	10.26	-10.29109	24.95577	159.05389	0.081354	12.29195	62.57239	63.65717	23.41477	0.33617	 	1.435180598E9	 	1.79613E-9	 	5407.329	27.3346	 
250.0	1.0	0.0	2.72203	10.25587	-10.32722	24.9035	158.81571	0.0807047	12.39085	62.79908	63.78541	23.50422	0.33591	 	1.92123208E9	 	1.32902E-9	 	5270.938	27.2782	 
245.0	1.0	0.0	2.72312	10.25175	-10.3632	24.85127	158.57195	0.0800562	12.49122	63.02455	63.91271	23.59322	0.33565	 	2.586412717E9	 	9.77787E-10	 	5134.83	27.2216	 
240.0	1.0	0.0	2.72421	10.24765	-10.39905	24.79906	158.32252	0.0794086	12.59309	63.2488	64.03909	23.68177	0.33539	 	3.502127945E9	 	7.15153E-10	 	4999.004	27.1652	 
235.0	1.0	0.0	2.7253	10.24357	-10.43475	24.74689	158.06731	0.0787619	12.6965	63.47183	64.16455	23.76986	0.33513	 	4.77042035E9	 	5.19903E-10	 	4863.461	27.1086	 
230.0	1.0	0.0	2.72638	10.2395	-10.47031	24.69475	157.8062	0.0781159	12.80149	63.69365	64.2891	23.8575	0.33488	 	6.538061116E9	 	3.75608E-10	 	4728.2	27.0522	 
225.0	1.0	0.0	2.72746	10.23545	-10.50574	24.64264	157.53908	0.0774708	12.90809	63.91425	64.41276	23.94468	0.33462	 	9.01756574E9	 	2.69623E-10	 	4593.223	26.9954	 
220.0	1.0	0.0	2.72853	10.23142	-10.54102	24.59057	157.26583	0.0768264	13.01635	64.13363	64.53552	24.0314	0.33437	 	1.2518799999999998E10	 	1.92267E-10	 	4458.53	26.9386	 
215.0	1.0	0.0	2.72961	10.2274	-10.57617	24.53852	156.98631	0.0761829	13.1263	64.35179	64.6574	24.11767	0.33412	 	1.74965E10	 	1.36172E-10	 	4324.122	26.8816	 
210.0	1.0	0.0	2.73068	10.22339	-10.61118	24.48651	156.70041	0.0755402	13.23799	64.56874	64.7784	24.20349	0.33387	 	2.4623599999999996E10	 	9.57673E-11	 	4189.998	26.8248	 
205.0	1.0	0.0	2.73174	10.21941	-10.64604	24.43453	156.40798	0.0748982	13.35146	64.78447	64.89854	24.28884	0.33363	 	3.49024E10	 	6.68645E-11	 	4056.159	26.7678	 
200.0	1.0	0.0	2.7328	10.21543	-10.68077	24.38258	156.10888	0.074257	13.46675	64.99899	65.01782	24.37374	0.33338	 	4.983799999999999E10	 	4.63367E-11	 	3922.607	26.7104	 
