T (C)	Fraction solid (wt)-TOTAL	Fraction liquid (wt)-LIQUID	Density (g/(cm)^3)-TOTAL	Molar volume (cm^3)-TOTAL	Volume change (%)-  	Average expansion coeff. (10e-6 1/K)-  	Thermal conductivity (W/(m*K))-TOTAL	Electrical resistivity (10e-6 Ohm*m)-TOTAL	Electrical conductivity (10e6 1/(Ohm*m))-TOTAL	Young's modulus (GPa)-TOTAL	Bulk modulus (GPa)-TOTAL	Shear modulus(GPa)-TOTAL	Poisson's ratio-TOTAL	Liquid viscosity (mPa s)-  	Total viscosity (mPa s)-  	Liquid diffusivity (10e-9 (m^2)/s)-  	Total diffusivity (10e-9 (m^2)/s)-  	Surface Tension (mN/m)-  	Enthalpy (J/mole)-TOTAL	Specific heat (J/(mole K))-TOTAL	Latent heat (J/mole)-TOTAL
1500.0	0.0	1.0	6.87595	7.7082	0.0	27.73119	32.60137	1.77226	0.56425	0.0	99.41117	0.0	0.49975	5.9413	5.9413	1.45663	1.45663	1780.18132	64935.027	 	0.0
1495.0	0.0	1.0	6.87978	7.7039	-0.0556959	27.68372	32.52917	1.77118	0.56459	0.0	99.59366	0.0	0.49975	5.99074	5.99074	1.44054	1.44054	1782.17298	64716.938	43.6178	0.0
1490.0	0.0	1.0	6.88361	7.69962	-0.11124	27.63633	32.45696	1.77011	0.56494	0.0	99.77614	0.0	0.49975	6.04088	6.04088	1.42454	1.42454	1784.16223	64499.408	43.506	0.0
1485.0	0.0	1.0	6.88743	7.69535	-0.16662	27.589	32.38476	1.76902	0.56528	0.0	99.95863	0.0	0.49975	6.09173	6.09173	1.40865	1.40865	1786.14904	64282.432	43.3952	0.0
1480.0	0.0	1.0	6.89124	7.69109	-0.22185	27.54175	32.31255	1.76793	0.56563	0.0	100.14112	0.0	0.49975	6.1433	6.1433	1.39285	1.39285	1788.13338	64066.009	43.2846	0.0
1475.0	0.0	1.0	6.89505	7.68685	-0.27693	27.49458	32.24035	1.76684	0.56598	0.0	100.3236	0.0	0.49975	6.1956	6.1956	1.37715	1.37715	1790.11521	63850.133	43.1752	0.0
1470.0	0.0	1.0	6.89884	7.68262	-0.33185	27.44748	32.16815	1.76574	0.56634	0.0	100.50609	0.0	0.49975	6.24866	6.24866	1.36155	1.36155	1792.0945	63634.801	43.0664	0.0
1465.0	0.0	1.0	6.90264	7.67839	-0.38662	27.40045	32.09594	1.76463	0.56669	0.0	100.68858	0.0	0.49975	6.30248	6.30248	1.34605	1.34605	1794.07122	63420.01	42.9582	0.0
1460.0	0.0	1.0	6.90642	7.67418	-0.44123	27.3535	32.02374	1.76353	0.56705	0.0	100.87106	0.0	0.49975	6.35707	6.35707	1.33066	1.33066	1796.04533	63205.756	42.8508	0.0
1455.0	0.0	1.0	6.9102	7.66999	-0.49568	27.30663	31.95154	1.76241	0.5674	0.0	101.05355	0.0	0.49975	6.41246	6.41246	1.31536	1.31536	1798.01679	62992.034	42.7444	0.0
1450.0	0.0	1.0	6.91398	7.6658	-0.54998	27.25984	31.87933	1.76129	0.56776	0.0	101.23604	0.0	0.49975	6.46866	6.46866	1.30016	1.30016	1799.98556	62778.844	42.638	0.0
1445.0	0.0	1.0	6.91774	7.66163	-0.60413	27.21313	31.80713	1.76017	0.56813	0.0	101.41852	0.0	0.49975	6.52568	6.52568	1.28506	1.28506	1801.95162	62566.183	42.5322	0.0
1440.0	0.0	1.0	6.9215	7.65747	-0.65812	27.16649	31.73492	1.75904	0.56849	0.0	101.60101	0.0	0.49975	6.58354	6.58354	1.27006	1.27006	1803.91491	62354.048	42.427	0.0
1435.0	0.0	1.0	6.92526	7.65332	-0.71195	27.11994	31.66272	1.75791	0.56886	0.0	101.7835	0.0	0.49975	6.64225	6.64225	1.25515	1.25515	1805.87541	62142.435	42.3226	0.0
1430.0	0.0	1.0	6.929	7.64918	-0.76563	27.07347	31.59052	1.75677	0.56923	0.0	101.96598	0.0	0.49975	6.70184	6.70184	1.24035	1.24035	1807.83308	61931.341	42.2188	0.0
1425.0	0.0	1.0	6.93274	7.64505	-0.81916	27.02708	31.51831	1.75562	0.5696	0.0	102.14847	0.0	0.49975	6.76232	6.76232	1.22565	1.22565	1809.78786	61720.763	42.1156	0.0
1420.0	0.0	1.0	6.93647	7.64094	-0.87253	26.98078	31.44611	1.75447	0.56997	0.0	102.33096	0.0	0.49975	6.82371	6.82371	1.21105	1.21105	1811.73973	61510.696	42.0134	0.0
1415.0	0.0	1.0	6.9402	7.63684	-0.92574	26.93455	31.37391	1.75332	0.57035	0.0	102.51344	0.0	0.49975	6.88602	6.88602	1.19655	1.19655	1813.68864	61301.139	41.9114	0.0
1410.0	0.0	1.0	6.94392	7.63275	-0.9788	26.88842	31.3017	1.75216	0.57073	0.0	102.69593	0.0	0.49975	6.94928	6.94928	1.18214	1.18214	1815.63454	61092.086	41.8106	0.0
1405.0	0.0	1.0	6.94763	7.62867	-1.03171	26.84237	31.2295	1.75099	0.57111	0.0	102.87842	0.0	0.49975	7.0135	7.0135	1.16784	1.16784	1817.57741	60883.535	41.7102	0.0
1403.19	0.0	1.0	6.94897	7.6272	-1.05077	26.82576	31.20343	1.75057	0.57124	0.0	102.9443	0.0	0.49975	7.03693	7.03693	1.1627	1.1627	1818.27809	60808.363	41.6428	0.0010
1400.0	0.03607	0.96393	6.95634	7.61918	-1.15484	26.60486	31.25149	1.74454	0.57322	8.64594E-5	101.50018	2.89289E-5	0.49434	7.04049	7.38107	1.1599	1.10637	1818.41869	60348.652	143.892	326.826
1395.0	0.0881106	0.91189	6.96727	7.60722	-1.30997	26.27819	31.31662	1.73571	0.57613	0.00312076	99.44676	0.0010497	0.4865	7.04574	8.16196	1.15557	0.99753	1818.67742	59670.467	135.637	797.45
1390.0	0.13537	0.86463	6.97744	7.59618	-1.45323	25.98166	31.37131	1.72749	0.57887	0.017616	97.62046	0.00595397	0.47935	7.05104	10.00222	1.15124	0.81156	1818.97182	59037.074	126.679	1223.775
1385.0	0.17846	0.82154	6.98694	7.58586	-1.5871	25.70882	31.41652	1.71982	0.58146	0.0538958	95.99205	0.0182973	0.47278	7.05643	14.01075	1.1469	0.57763	1819.30113	58442.748	118.865	1611.522
1380.0	0.21787	0.78213	6.99585	7.57636	-1.71027	25.46351	31.45409	1.71259	0.58391	0.12122	94.54193	0.0413234	0.46675	7.06194	21.3534	1.14255	0.37786	1819.65869	57882.687	112.012	1965.486
1375.0	0.25406	0.74594	7.00423	7.56737	-1.8269	25.23449	31.48407	1.70578	0.58624	0.22684	93.24576	0.077623	0.46118	7.06744	33.15506	1.13821	0.24262	1820.04808	57352.844	105.969	2289.715
1370.0	0.28738	0.71262	7.01214	7.55894	-1.93633	25.02384	31.50761	1.69934	0.58846	0.37569	92.08915	0.12901	0.45603	7.07303	50.45021	1.13386	0.15896	1820.46505	56849.784	100.612	2587.643
1365.0	0.31813	0.68187	7.01958	7.55102	-2.03907	24.83028	31.52524	1.69322	0.59059	0.57068	91.05646	0.19662	0.45125	7.07894	74.18892	1.12946	0.10777	1820.90727	56370.569	95.843	2862.199
1360.0	0.3466	0.6534	7.02669	7.54353	-2.13617	24.65105	31.53793	1.68737	0.59264	0.81313	90.13628	0.28101	0.4468	7.08467	105.24813	1.12511	0.0757353	1821.37405	55912.682	91.5774	3115.901
1355.0	0.37301	0.62699	7.03346	7.53636	-2.22929	24.48173	31.54554	1.6818	0.5946	1.1027	89.3163	0.38218	0.44265	7.09047	144.40192	1.12074	0.0550311	1821.86679	55473.952	87.746	3350.915
1350.0	0.39755	0.60245	7.03991	7.52955	-2.31759	24.32471	31.54894	1.67645	0.5965	1.43829	88.58799	0.49983	0.43878	7.09632	192.41257	1.11638	0.0411729	1822.38098	55052.496	84.2912	3569.123
1345.64	0.41779	0.58221	7.04538	7.52391	-2.39079	24.19748	31.54904	1.67195	0.5981	1.77069	88.01354	0.61672	0.43557	7.10141	242.54773	1.11259	0.0325748	1822.84545	54696.273	 	3748.681
1345.64	0.41779	0.58221	7.04538	7.52391	-2.39079	24.19748	31.54904	1.67195	0.5981	1.77069	88.01354	0.61672	0.43557	7.10141	242.54771	1.11259	0.0325748	1822.84545	54696.274	 	3748.681
1345.0	0.42244	0.57756	7.04648	7.52274	-2.40589	24.16649	31.55231	1.67111	0.5984	1.83015	87.98495	0.63772	0.43491	7.10091	255.96932	1.11222	0.0308544	1822.87846	54621.892	86.1208	3796.944
1340.0	0.45696	0.54304	7.05501	7.51367	-2.52367	23.92319	31.57337	1.66484	0.60066	2.33398	87.81469	0.81611	0.42994	7.09515	376.6626	1.10968	0.020903	1823.17977	54063.518	111.675	4152.996
1335.0	0.48851	0.51149	7.06298	7.50531	-2.6321	23.70476	31.58773	1.65892	0.6028	2.91176	87.72677	1.0214	0.42537	7.08958	527.79803	1.10711	0.0148712	1823.51418	53538.242	105.055	4476.411
1330.0	0.51739	0.48261	7.07047	7.49755	-2.73271	23.50705	31.59597	1.65333	0.60484	3.56727	87.70466	1.25506	0.42115	7.08397	711.24583	1.10455	0.0110012	1823.88145	53042.579	99.1326	4770.667
1325.0	0.54387	0.45613	7.07753	7.49035	-2.82613	23.32854	31.59878	1.64803	0.60679	4.30293	87.73737	1.51805	0.41725	7.07843	928.67222	1.10196	0.00839927	1824.2789	52573.516	93.8126	5038.776
1320.0	0.56819	0.43181	7.08425	7.48354	-2.91453	23.16313	31.59621	1.64301	0.60864	5.11882	87.8152	1.81051	0.41364	7.07277	1181.34018	1.09939	0.00658216	1824.71085	52128.431	89.017	5283.358
1315.0	0.59055	0.40945	7.09058	7.47722	-2.99654	23.015	31.58913	1.63822	0.61042	6.01337	87.93253	2.13196	0.41029	7.0677	1470.81245	1.09673	0.00527013	1825.16751	51705.027	84.6808	5506.708
1310.0	0.61112	0.38888	7.09663	7.47123	-3.07418	22.87845	31.57775	1.63365	0.61213	6.9831	88.08351	2.48124	0.40718	7.06277	1798.30856	1.09404	0.00429679	1825.65395	51301.281	80.7492	5710.844
1305.0	0.63006	0.36994	7.10235	7.46563	-3.14683	22.75539	31.5624	1.62928	0.61377	8.02178	88.26407	2.85616	0.40429	7.05873	2165.05553	1.09121	0.00355767	1826.16364	50915.405	77.1752	5897.554
1300.0	0.64752	0.35248	7.10785	7.46031	-3.21591	22.64187	31.54343	1.6251	0.61535	9.12366	88.4703	3.25472	0.40161	7.05514	2572.59079	1.08831	0.0029846	1826.70019	50545.802	73.9206	6068.43
1295.0	0.66363	0.33637	7.11309	7.45535	-3.28022	22.5415	31.52138	1.62106	0.61688	10.28018	88.69989	3.67383	0.39911	7.0528	3022.56864	1.08521	0.0025322	1827.25393	50191.038	70.9528	6224.905
1290.0	0.67851	0.32149	7.1181	7.4506	-3.34185	22.44827	31.49614	1.61719	0.61836	11.48341	88.94875	4.11067	0.39678	7.05149	3516.47679	1.08195	0.0021696	1827.83319	49849.819	68.2438	6368.269
1285.0	0.69224	0.30776	7.12294	7.44607	-3.4006	22.36286	31.46816	1.61345	0.61979	12.72574	89.2154	4.56249	0.39461	7.05112	4056.60608	1.07854	0.00187471	1828.43439	49520.973	65.7692	6499.694
1280.0	0.70495	0.29505	7.12758	7.44178	-3.45621	22.28613	31.43775	1.60983	0.62118	13.99721	89.49787	5.02565	0.39258	7.05232	4644.84671	1.0749	0.00163203	1829.05272	49203.429	63.5088	6620.247
1275.0	0.71671	0.28329	7.13208	7.43763	-3.51014	22.2138	31.40474	1.60633	0.62254	15.29203	89.79365	5.49806	0.39068	7.05497	5284.11639	1.07104	0.00142997	1829.69591	48896.208	61.4442	6730.903
1270.0	0.7276	0.2724	7.13641	7.43371	-3.56099	22.15019	31.36982	1.60293	0.62386	16.60054	90.10246	5.97615	0.3889	7.05948	5977.05327	1.0669	0.00126011	1830.35104	48598.416	59.5584	6832.557
1269.17	0.72919	0.27081	7.13707	7.43305	-3.56952	22.13932	31.36388	1.60237	0.62408	16.80091	90.15499	6.04941	0.38864	7.0602	6092.07092	1.06621	0.00123565	1830.46064	48551.177	 	6847.223
1265.0	0.78456	0.21544	7.14911	7.42086	-3.72768	21.73642	31.33113	1.59971	0.62511	24.97863	90.88993	9.05942	0.3786	7.15228	8837.06693	1.04964	8.49527E-4	1828.54102	47601.309	199.421	7633.947
1262.64	0.80802	0.19198	7.1545	7.41541	-3.7984	21.5641	31.31065	1.59829	0.62567	29.42591	91.25558	10.70569	0.37431	7.20573	10347.57248	1.04025	7.24401E-4	1827.47643	47177.361	 	7965.515
1260.0	0.83663	0.16337	7.16208	7.40773	-3.89799	21.30834	31.28668	1.59677	0.62626	35.75622	91.68864	13.05826	0.3691	7.28331	12437.6161	1.02741	6.01637E-4	1828.09625	46660.966	188.069	8378.994
1255.0	0.87689	0.12311	7.17326	7.3964	-4.04497	20.94774	31.23906	1.59399	0.62736	46.48461	92.42404	17.06867	0.36169	7.43777	16227.92497	1.00279	4.5961E-4	1829.01632	45888.541	154.485	8956.541
1250.0	0.90393	0.0960665	7.1815	7.38798	-4.15422	20.69949	31.18893	1.59133	0.62841	54.9684	93.06693	20.25915	0.35663	7.59995	19702.2261	0.97818	3.77324E-4	1829.71784	45310.104	115.687	9340.515
1245.0	0.92304	0.0769634	7.18799	7.3813	-4.24082	20.51867	31.13741	1.58873	0.62943	61.6338	93.65192	22.77696	0.35299	7.77	22969.9698	0.95363	3.22583E-4	1830.22475	44847.602	92.5004	9608.968
1240.0	0.93708	0.0629247	7.19338	7.37572	-4.31333	20.37978	31.08503	1.58617	0.63045	66.93542	94.19824	24.78637	0.35025	7.94674	26126.6662	0.92935	2.82673E-4	1830.56796	44458.872	77.746	9804.064
1235.0	0.94772	0.0522791	7.19804	7.37083	-4.37669	20.26803	31.03201	1.58363	0.63146	71.23113	94.71758	26.41878	0.34812	8.13046	29248.07689	0.90535	2.51671E-4	1830.77343	44119.503	67.8738	9950.214
1230.0	0.956	0.043998	7.20222	7.36643	-4.43375	20.17492	30.97829	1.58111	0.63247	74.77941	95.21753	27.76994	0.34641	8.3203	32393.49574	0.88176	2.26481E-4	1830.8578	43814.485	61.0036	10062.424
1228.41	0.95821	0.0417883	7.20346	7.36512	-4.45078	20.14861	30.96122	1.58031	0.63279	75.76703	95.37281	28.14645	0.34594	8.38168	33400.57502	0.87438	2.1942E-4	1830.86554	43723.587	 	10092.104
1228.41	0.95821	0.0417883	7.20346	7.36512	-4.45078	20.14861	30.96122	1.58031	0.63279	75.76703	95.37281	28.14645	0.34594	8.38168	33400.56631	0.87438	2.1942E-4	1830.86554	43723.59	 	10092.102
1225.0	0.96396	0.0360381	7.20628	7.36215	-4.48929	20.08577	30.92198	1.57872	0.63342	78.36006	95.73263	29.13727	0.34467	8.49992	35819.9073	0.86025	2.04135E-4	1830.0927	43504.704	61.9562	10179.807
1220.0	0.97108	0.0289248	7.21034	7.35804	-4.54267	20.00265	30.86603	1.57631	0.63439	81.70386	96.24038	30.41661	0.34308	8.67823	39462.12798	0.83977	1.84676E-4	1828.88869	43209.267	59.0874	10283.255
1215.0	0.97642	0.0235765	7.21405	7.35422	-4.59223	19.93083	30.81034	1.57387	0.63538	84.39677	96.72782	31.44841	0.34183	8.86204	43152.94156	0.8196	1.68315E-4	1827.61215	42940.989	53.6556	10359.949
1210.0	0.98051	0.0194852	7.2175	7.35061	-4.63901	19.86721	30.75474	1.57141	0.63637	86.61389	97.20111	32.29887	0.34082	9.05166	46949.60304	0.79973	1.54184E-4	1826.27613	42691.627	49.8724	10418.13
1205.0	0.9837	0.0163029	7.22075	7.34717	-4.68363	19.80986	30.69918	1.56895	0.63737	88.48066	97.66437	33.01559	0.33998	9.24681	50901.96642	0.78021	1.41733E-4	1824.88718	42455.748	47.1758	10463.23
1200.0	0.98623	0.0137708	7.22386	7.34385	-4.72667	19.75707	30.64366	1.56648	0.63838	90.09276	98.12004	33.63498	0.33927	9.44732	55057.52285	0.76107	1.30592E-4	1823.45609	42229.613	45.227	10498.984
1195.0	0.98833	0.0116661	7.2269	7.34061	-4.76876	19.70688	30.58827	1.56399	0.63939	91.53756	98.5704	34.19039	0.33864	9.65312	59470.94353	0.74232	1.2049E-4	1821.99268	42010.475	43.8276	10528.139
1190.0	0.99011	0.00989233	7.22988	7.33742	-4.81011	19.65864	30.53281	1.56149	0.64041	92.85108	99.01631	34.69559	0.33808	9.8642	64177.33552	0.72396	1.11274E-4	1820.50196	41796.807	42.7336	10552.219
1185.0	0.99162	0.00837912	7.23282	7.33429	-4.85081	19.61205	30.47759	1.55898	0.64145	94.0606	99.45884	35.16098	0.33757	10.08113	69212.36395	0.70596	1.02827E-4	1818.98119	41587.499	41.8616	10572.331
1180.0	0.99292	0.00707668	7.23573	7.33118	-4.89104	19.56662	30.42247	1.55644	0.64249	95.18668	99.89846	35.59444	0.3371	10.30338	74612.55075	0.68836	9.50573E-5	1817.44124	41381.728	41.1542	10589.297
1175.0	0.99406	0.00594351	7.23861	7.32812	-4.93084	19.52216	30.36744	1.5539	0.64354	96.24501	100.33572	36.00196	0.33666	10.53104	80416.17921	0.67116	8.78935E-5	1815.88556	41178.872	40.5712	10603.738
1170.0	0.99505	0.00494953	7.24147	7.32508	-4.97029	19.47847	30.3125	1.55134	0.6446	97.24632	100.7708	36.38765	0.33625	10.7647	86662.63806	0.65433	8.12767E-5	1814.31153	40978.451	40.0842	10616.13
1165.0	0.99593	0.00407295	7.24431	7.32206	-5.0094	19.43551	30.25764	1.54877	0.64567	98.20154	101.20423	36.75571	0.33587	11.00442	93396.62371	0.63786	7.51553E-5	1812.7186	40780.089	39.6724	10626.848
1160.0	0.99671	0.00329404	7.24714	7.31907	-5.04826	19.39301	30.20285	1.54619	0.64675	99.1168	101.63588	37.10848	0.3355	11.2499	100663.3385	0.62177	6.94876E-5	1811.12156	40583.491	39.3196	10636.184
1155.0	0.9974	0.00259722	7.24995	7.31609	-5.08684	19.35104	30.14812	1.54359	0.64784	99.99909	102.06627	37.44864	0.33515	11.50166	108514.6333	0.60604	6.42351E-5	1809.51086	40388.419	39.0144	10644.376
1150.0	0.99803	0.00197212	7.25274	7.31313	-5.12521	19.30941	30.09348	1.54098	0.64894	100.85264	102.49522	37.77783	0.33481	11.75996	117004.5742	0.59065	5.93656E-5	1807.89132	40194.68	38.7478	10651.615
1145.0	0.99859	0.00140627	7.25553	7.31019	-5.16337	19.26812	30.0389	1.53835	0.65005	101.68162	102.92304	38.09763	0.33449	12.02493	126193.4923	0.57561	5.48494E-5	1806.26566	40002.116	38.5128	10658.055
1140.0	0.99911	8.93429E-4	7.25831	7.30727	-5.20133	19.2271	29.9844	1.53572	0.65116	102.48956	103.34969	38.4094	0.33417	12.29606	136147.3754	0.56093	5.06601E-5	1804.63949	39810.597	38.3038	10663.825
1135.0	0.99957	4.27376E-4	7.26108	7.30435	-5.23913	19.18627	29.92998	1.53306	0.65229	103.27937	103.77522	38.71428	0.33387	12.57434	146938.2145	0.54658	4.67736E-5	1803.00761	39620.015	38.1164	10669.032
1130.0	1.0	0.0	7.26384	7.30146	-5.27672	19.14579	29.87559	1.5304	0.65342	104.05251	104.19988	39.01279	0.33357	 	158644.5338	 	4.31684E-5	 	39430.278	37.9474	10673.763
1125.0	1.0	0.0	7.26613	7.29915	-5.30662	19.13106	29.81917	1.52783	0.65452	104.59596	104.61771	39.22246	0.33337	 	171068.8905	 	3.98905E-5	 	39215.091	43.0374	 
1120.0	1.0	0.0	7.26842	7.29685	-5.33649	19.11636	29.76274	1.52526	0.65563	105.1398	105.03493	39.43235	0.33317	 	184569.7419	 	3.68404E-5	 	39032.378	36.5426	 
1115.0	1.0	0.0	7.27071	7.29455	-5.36631	19.10166	29.70631	1.52267	0.65674	105.68402	105.45153	39.64243	0.33297	 	199249.0247	 	3.40038E-5	 	38849.851	36.5054	 
1110.0	1.0	0.0	7.273	7.29225	-5.39609	19.08698	29.64989	1.52007	0.65786	106.22859	105.86749	39.85271	0.33276	 	215219.1282	 	3.13672E-5	 	38667.517	36.4668	 
1105.0	1.0	0.0	7.27529	7.28996	-5.42582	19.0723	29.59346	1.51746	0.65899	106.77351	106.28279	40.06319	0.33256	 	232604.0473	 	2.89178E-5	 	38485.387	36.426	 
1100.0	1.0	0.0	7.27757	7.28767	-5.45551	19.05765	29.53703	1.51485	0.66013	107.31874	106.69741	40.27384	0.33236	 	251540.6703	 	2.66438E-5	 	38303.465	36.3844	 
1095.0	1.0	0.0	7.27986	7.28539	-5.48516	19.043	29.48061	1.51222	0.66128	107.86427	107.11133	40.48467	0.33216	 	272180.2203	 	2.45337E-5	 	38121.749	36.3432	 
1090.0	1.0	0.0	7.28214	7.28311	-5.51477	19.02837	29.42418	1.50958	0.66243	108.41007	107.52455	40.69567	0.33196	 	294689.868	 	2.25769E-5	 	37940.238	36.3022	 
1085.0	1.0	0.0	7.28442	7.28083	-5.54433	19.01375	29.36775	1.50694	0.6636	108.95614	107.93703	40.90683	0.33176	 	319254.5392	 	2.07633E-5	 	37758.93	36.2616	 
1080.0	1.0	0.0	7.2867	7.27855	-5.57385	18.99914	29.31133	1.50428	0.66477	109.50245	108.34878	41.11814	0.33156	 	346078.9405	 	1.90835E-5	 	37577.823	36.2214	 
1075.0	1.0	0.0	7.28897	7.27628	-5.60333	18.98454	29.2549	1.50161	0.66595	110.04897	108.75977	41.3296	0.33136	 	375389.8323	 	1.75284E-5	 	37396.915	36.1816	 
1070.0	1.0	0.0	7.29124	7.27401	-5.63277	18.96996	29.19847	1.49893	0.66714	110.59571	109.16998	41.5412	0.33116	 	407438.5805	 	1.60897E-5	 	37216.203	36.1424	 
1065.0	1.0	0.0	7.29352	7.27174	-5.66216	18.95539	29.14205	1.49624	0.66834	111.14262	109.5794	41.75294	0.33096	 	442504.0235	 	1.47596E-5	 	37035.687	36.1032	 
1060.0	1.0	0.0	7.29579	7.26948	-5.69152	18.94083	29.08562	1.49355	0.66955	111.6897	109.98801	41.9648	0.33075	 	480895.6966	 	1.35305E-5	 	36855.364	36.0646	 
1055.0	1.0	0.0	7.29805	7.26722	-5.72083	18.92628	29.02919	1.49084	0.67076	112.23693	110.3958	42.17677	0.33055	 	522957.4596	 	1.23956E-5	 	36675.231	36.0266	 
1050.0	1.0	0.0	7.30032	7.26497	-5.75009	18.91175	28.97277	1.48812	0.67199	112.78428	110.80276	42.38886	0.33035	 	569071.5822	 	1.13482E-5	 	36495.286	35.989	 
1045.0	1.0	0.0	7.30259	7.26271	-5.77932	18.89723	28.91634	1.48539	0.67323	113.33175	111.20886	42.60106	0.33015	 	619663.3493	 	1.03824E-5	 	36315.528	35.9516	 
1040.0	1.0	0.0	7.30485	7.26046	-5.8085	18.88272	28.85992	1.48264	0.67447	113.8793	111.6141	42.81335	0.32995	 	675206.2543	 	9.49215E-6	 	36135.954	35.9148	 
1035.0	1.0	0.0	7.30711	7.25822	-5.83764	18.86823	28.8035	1.47989	0.67572	114.42694	112.01845	43.02574	0.32975	 	736227.863	 	8.67225E-6	 	35956.561	35.8786	 
1030.0	1.0	0.0	7.30937	7.25598	-5.86674	18.85375	28.74708	1.47713	0.67699	114.97463	112.42192	43.23821	0.32955	 	803316.4375	 	7.91762E-6	 	35777.347	35.8428	 
1025.0	1.0	0.0	7.31162	7.25374	-5.89579	18.83928	28.69066	1.47436	0.67826	115.52235	112.82447	43.45076	0.32935	 	877128.4263	 	7.22351E-6	 	35598.309	35.8076	 
1020.0	1.0	0.0	7.31388	7.2515	-5.92481	18.82482	28.63424	1.47157	0.67955	116.0701	113.2261	43.66338	0.32915	 	958396.9406	 	6.58552E-6	 	35419.446	35.7726	 
1015.0	1.0	0.0	7.31613	7.24927	-5.95378	18.81038	28.57782	1.46877	0.68084	116.61785	113.6268	43.87607	0.32895	 	1047941.354	 	5.99952E-6	 	35240.754	35.7384	 
1010.0	1.0	0.0	7.31838	7.24704	-5.98271	18.79594	28.52141	1.46597	0.68214	117.16559	114.02654	44.08881	0.32875	 	1146678.185	 	5.46163E-6	 	35062.23	35.7048	 
1005.0	1.0	0.0	7.32063	7.24481	-6.0116	18.78152	28.465	1.46315	0.68346	117.7133	114.42532	44.30161	0.32854	 	1255633.444	 	4.96828E-6	 	34883.871	35.6718	 
1000.0	1.0	0.0	7.32288	7.24259	-6.04044	18.76712	28.40859	1.46032	0.68478	118.26096	114.82312	44.51446	0.32834	 	1375956.652	 	4.51608E-6	 	34705.676	35.639	 
995.0	1.0	0.0	7.32513	7.24037	-6.06925	18.75272	28.35218	1.45748	0.68612	118.80855	115.21994	44.72734	0.32814	 	1508936.772	 	4.10191E-6	 	34527.641	35.607	 
