T (C)	Fraction solid (wt)-TOTAL	Fraction liquid (wt)-LIQUID	Density (g/(cm)^3)-TOTAL	Molar volume (cm^3)-TOTAL	Volume change (%)-  	Average expansion coeff. (10e-6 1/K)-  	Thermal conductivity (W/(m*K))-TOTAL	Electrical resistivity (10e-6 Ohm*m)-TOTAL	Electrical conductivity (10e6 1/(Ohm*m))-TOTAL	Young's modulus (GPa)-TOTAL	Bulk modulus (GPa)-TOTAL	Shear modulus(GPa)-TOTAL	Poisson's ratio-TOTAL	Liquid viscosity (mPa s)-  	Total viscosity (mPa s)-  	Liquid diffusivity (10e-9 (m^2)/s)-  	Total diffusivity (10e-9 (m^2)/s)-  	Surface Tension (mN/m)-  	Enthalpy (J/mole)-TOTAL	Specific heat (J/(mole K))-TOTAL	Latent heat (J/mole)-TOTAL
1500.0	0.0	1.0	6.86624	7.68995	0.0	28.34997	32.75548	1.76392	0.56692	0.0	99.03145	0.0	0.49976	5.85938	5.85938	1.477	1.477	1778.37639	64936.194	 	0.0
1495.0	0.0	1.0	6.87008	7.68565	-0.0558959	28.30375	32.68307	1.76284	0.56727	0.0	99.21328	0.0	0.49976	5.90793	5.90793	1.46073	1.46073	1780.37862	64718.091	43.6206	0.0
1490.0	0.0	1.0	6.87391	7.68136	-0.11164	28.25761	32.61067	1.76176	0.56761	0.0	99.39512	0.0	0.49976	5.95716	5.95716	1.44456	1.44456	1782.37853	64500.548	43.5086	0.0
1485.0	0.0	1.0	6.87774	7.67709	-0.16722	28.21156	32.53826	1.76068	0.56796	0.0	99.57695	0.0	0.49976	6.00709	6.00709	1.4285	1.4285	1784.37608	64283.561	43.3974	0.0
1480.0	0.0	1.0	6.88156	7.67282	-0.22265	28.16559	32.46585	1.75958	0.56832	0.0	99.75878	0.0	0.49976	6.05772	6.05772	1.41253	1.41253	1786.37125	64067.125	43.2872	0.0
1475.0	0.0	1.0	6.88537	7.66857	-0.27792	28.11971	32.39345	1.75849	0.56867	0.0	99.94061	0.0	0.49976	6.10907	6.10907	1.39666	1.39666	1788.364	63851.239	43.1772	0.0
1470.0	0.0	1.0	6.88918	7.66433	-0.33304	28.07391	32.32104	1.75739	0.56903	0.0	100.12244	0.0	0.49976	6.16115	6.16115	1.38089	1.38089	1790.3543	63635.897	43.0684	0.0
1465.0	0.0	1.0	6.89298	7.66011	-0.388	28.0282	32.24863	1.75628	0.56939	0.0	100.30427	0.0	0.49976	6.21399	6.21399	1.36522	1.36522	1792.34212	63421.096	42.9602	0.0
1460.0	0.0	1.0	6.89678	7.65589	-0.44281	27.98258	32.17622	1.75517	0.56975	0.0	100.4861	0.0	0.49976	6.26758	6.26758	1.34966	1.34966	1794.32742	63206.833	42.8526	0.0
1455.0	0.0	1.0	6.90057	7.65169	-0.49746	27.93705	32.10382	1.75405	0.57011	0.0	100.66794	0.0	0.49976	6.32195	6.32195	1.33419	1.33419	1796.31017	62993.103	42.746	0.0
1450.0	0.0	1.0	6.90435	7.6475	-0.55196	27.89161	32.03141	1.75293	0.57047	0.0	100.84977	0.0	0.49976	6.37711	6.37711	1.31882	1.31882	1798.29032	62779.905	42.6396	0.0
1445.0	0.0	1.0	6.90812	7.64332	-0.6063	27.84626	31.959	1.7518	0.57084	0.0	101.0316	0.0	0.49976	6.43308	6.43308	1.30355	1.30355	1800.26785	62567.237	42.5336	0.0
1440.0	0.0	1.0	6.91189	7.63915	-0.66048	27.801	31.8866	1.75067	0.57121	0.0	101.21343	0.0	0.49976	6.48987	6.48987	1.28839	1.28839	1802.24272	62355.096	42.4282	0.0
1435.0	0.0	1.0	6.91565	7.635	-0.71451	27.75583	31.81419	1.74954	0.57158	0.0	101.39526	0.0	0.49976	6.5475	6.5475	1.27332	1.27332	1804.21489	62143.477	42.3238	0.0
1430.0	0.0	1.0	6.91941	7.63086	-0.76838	27.71076	31.74178	1.74839	0.57195	0.0	101.57709	0.0	0.49976	6.60598	6.60598	1.25835	1.25835	1806.18432	61932.378	42.2198	0.0
1425.0	0.0	1.0	6.92315	7.62673	-0.8221	27.66578	31.66938	1.74725	0.57233	0.0	101.75892	0.0	0.49976	6.66534	6.66534	1.24348	1.24348	1808.15097	61721.795	42.1166	0.0
1420.0	0.0	1.0	6.92689	7.62261	-0.87566	27.6209	31.59697	1.74609	0.57271	0.0	101.94075	0.0	0.49976	6.72558	6.72558	1.22872	1.22872	1810.11481	61511.725	42.014	0.0
1415.0	0.0	1.0	6.93063	7.6185	-0.92907	27.57611	31.52456	1.74494	0.57309	0.0	102.12259	0.0	0.49976	6.78673	6.78673	1.21405	1.21405	1812.07579	61302.164	41.9122	0.0
1410.0	0.0	1.0	6.93436	7.61441	-0.98232	27.53143	31.45216	1.74377	0.57347	0.0	102.30442	0.0	0.49976	6.84881	6.84881	1.19948	1.19948	1814.03387	61093.108	41.8112	0.0
1405.0	0.0	1.0	6.93808	7.61032	-1.03542	27.48684	31.37975	1.74261	0.57385	0.0	102.48625	0.0	0.49976	6.91182	6.91182	1.18502	1.18502	1815.98902	60884.554	41.7108	0.0
1400.0	0.0	1.0	6.94179	7.60625	-1.08836	27.44235	31.30734	1.74143	0.57424	0.0	102.66808	0.0	0.49976	6.9758	6.9758	1.17065	1.17065	1817.94118	60676.497	41.6114	0.0
1399.79	0.0	1.0	6.94195	7.60608	-1.0906	27.44047	31.30428	1.74138	0.57426	0.0	102.67577	0.0	0.49976	6.97853	6.97853	1.17005	1.17005	1818.02373	60667.703	41.5615	0.0010
1395.0	0.0513901	0.94861	6.9527	7.59426	-1.24428	27.11555	31.36116	1.73325	0.57695	3.54141E-4	100.60413	1.18677E-4	0.49204	6.98249	7.48795	1.16604	1.08732	1818.25345	60003.222	138.769	465.711
1390.0	0.10025	0.89975	6.96314	7.58289	-1.39212	26.80855	31.41095	1.72531	0.5796	0.00519964	98.67197	0.00175112	0.48466	6.98672	8.42138	1.16184	0.96391	1818.52893	59354.402	129.764	907.462
1385.0	0.14483	0.85517	6.97284	7.5724	-1.52857	26.53073	31.45185	1.71789	0.58211	0.0229434	96.94679	0.00776219	0.4779	6.99133	10.61758	1.15758	0.76223	1818.83762	58745.822	121.716	1309.459
1380.0	0.18563	0.81437	6.98199	7.56257	-1.65635	26.27484	31.48504	1.7109	0.58449	0.0627207	95.40471	0.0213093	0.47167	6.9957	15.13447	1.15337	0.53313	1819.1798	58172.558	114.653	1676.629
1375.0	0.22311	0.77689	6.9906	7.55332	-1.77671	26.03768	31.51105	1.70432	0.58674	0.1325	94.02417	0.0451931	0.46592	7.00014	23.06459	1.14915	0.34877	1819.5539	57630.445	108.423	2013.128
1370.0	0.25764	0.74236	6.99873	7.54464	-1.88958	25.81966	31.53098	1.69808	0.5889	0.23841	92.78881	0.0816121	0.4606	7.00462	35.45843	1.14493	0.22617	1819.95632	57115.95	102.899	2322.489
1365.0	0.28953	0.71047	7.00637	7.53653	-1.995	25.62087	31.54542	1.69214	0.59097	0.38471	91.68304	0.13214	0.45567	7.00941	53.30485	1.14067	0.14999	1820.38393	56626.057	97.9786	2607.727
1360.0	0.31907	0.68093	7.01368	7.52878	-2.09577	25.43365	31.55473	1.68647	0.59295	0.57393	90.69338	0.19776	0.45107	7.014	77.51388	1.13644	0.10283	1820.83985	56158.169	93.5776	2871.43
1357.45	0.33342	0.66658	7.01732	7.52496	-2.14546	25.34237	31.55775	1.68368	0.59394	0.68838	90.2248	0.23756	0.44882	7.01616	92.7065	1.13432	0.0858469	1821.08127	55926.422	 	2999.364
1357.45	0.33342	0.66658	7.01732	7.52496	-2.14546	25.34237	31.55775	1.68368	0.59394	0.68838	90.2248	0.23756	0.44882	7.01616	92.70651	1.13432	0.0858469	1821.08127	55926.423	 	2999.363
1355.0	0.35545	0.64455	7.02241	7.51955	-2.21584	25.1906	31.57842	1.68005	0.59522	0.80574	90.0335	0.27866	0.44573	7.01217	122.73359	1.13326	0.0647467	1821.15323	55596.908	112.252	3228.978
1350.0	0.39736	0.60264	7.03229	7.50904	-2.3525	24.89872	31.61348	1.67303	0.59772	1.08601	89.74344	0.37714	0.43978	7.00348	203.55213	1.13118	0.0389197	1821.3419	54958.818	127.618	3663.822
1345.0	0.43548	0.56452	7.0415	7.49942	-2.47756	24.63762	31.64034	1.66646	0.60007	1.42907	89.56092	0.49817	0.43433	6.99447	313.27795	1.12915	0.0252102	1821.57044	54363.008	119.162	4056.851
1340.0	0.47024	0.52976	7.05011	7.49053	-2.59314	24.40155	31.65948	1.66031	0.6023	1.84594	89.46098	0.64574	0.42932	6.98527	454.69577	1.12714	0.0173157	1821.83895	53804.726	111.656	4412.814
1335.0	0.50199	0.49801	7.05823	7.48226	-2.70075	24.18653	31.67171	1.65452	0.6044	2.34624	89.42772	0.82341	0.42471	6.97558	630.10468	1.12521	0.0124566	1822.14732	53279.893	104.967	4735.79
1330.0	0.53103	0.46897	7.06584	7.47463	-2.8	23.9939	31.67776	1.64906	0.6064	2.93681	89.45008	1.03376	0.42045	6.96612	841.4159	1.12323	0.0092993	1822.48894	52784.997	98.9792	5029.283
1325.0	0.55764	0.44236	7.07302	7.46755	-2.89201	23.82065	31.67821	1.6439	0.60831	3.62174	89.51945	1.2784	0.41651	6.95672	1090.25415	1.12124	0.00715445	1822.86252	52316.999	93.5996	5296.332
1320.0	0.58206	0.41794	7.07983	7.46093	-2.97807	23.66331	31.67357	1.63899	0.61013	4.40211	89.62876	1.55786	0.41287	6.94723	1378.01777	1.11926	0.00564272	1823.26873	51873.254	88.749	5539.578
1315.0	0.60448	0.39552	7.0863	7.45469	-3.05924	23.51899	31.66395	1.63435	0.61187	5.27721	89.77117	1.87202	0.4095	6.93799	1706.27407	1.11723	0.00454286	1823.70831	51451.438	84.3632	5761.345
1310.0	0.6251	0.3749	7.09241	7.4489	-3.13452	23.39072	31.65022	1.62991	0.61353	6.24224	89.94397	2.21927	0.40637	6.92951	2076.19543	1.11508	0.00372169	1824.17227	51049.505	80.3866	5963.674
1305.0	0.64406	0.35594	7.09827	7.4434	-3.20601	23.27256	31.6324	1.62568	0.61513	7.29249	90.14197	2.59804	0.40346	6.92142	2489.49096	1.11286	0.00309403	1824.66746	50665.638	76.7734	6148.379
1300.0	0.66152	0.33848	7.10383	7.43832	-3.27216	23.16919	31.61126	1.62161	0.61667	8.41894	90.36383	3.00512	0.40077	6.91444	2947.39012	1.11045	0.00260507	1825.18157	50298.219	73.4838	6317.078
1295.0	0.67761	0.32239	7.10918	7.43346	-3.33531	23.07386	31.58671	1.61771	0.61816	9.61429	90.60512	3.43795	0.39826	6.90815	3451.77952	1.10793	0.00221733	1825.72426	49945.782	70.4874	6471.231
1290.0	0.69243	0.30757	7.11431	7.42882	-3.39568	22.98604	31.559	1.61397	0.61959	10.86873	90.86324	3.89304	0.39592	6.90295	4004.43733	1.10523	0.00190522	1826.29404	49607.009	67.7546	6612.157
1285.0	0.70612	0.29388	7.11922	7.42447	-3.45218	22.90903	31.52862	1.61036	0.62098	12.17289	91.13766	4.36699	0.39374	6.8996	4607.89046	1.10223	0.00165042	1826.88091	49280.695	65.2628	6741.056
1280.0	0.71876	0.28124	7.12397	7.42031	-3.50631	22.8385	31.49582	1.60686	0.62233	13.51642	91.42563	4.85606	0.39171	6.89721	5264.23981	1.09907	0.00144001	1827.49158	48965.744	62.9902	6859.023
1275.48	0.7283	0.2717	7.12777	7.41658	-3.55488	22.77528	31.46423	1.60379	0.62352	14.63496	91.696	5.26381	0.39015	6.89657	5868.591	1.09598	0.00128796	1828.05759	48700.074	 	6947.052
1275.0	0.73724	0.26276	7.12962	7.41472	-3.57902	22.71162	31.46122	1.60345	0.62366	15.71991	91.79985	5.66058	0.38854	6.90602	6224.02902	1.09414	0.00121403	1827.73198	48554.54	82.2408	7073.67
1270.0	0.81178	0.18822	7.14551	7.39867	-3.78777	22.17382	31.42576	1.60007	0.62497	28.12285	92.76721	10.22602	0.37506	7.00685	10031.07525	1.07491	7.5084E-4	1824.51847	47307.383	249.431	8124.695
1268.22	0.82978	0.17022	7.14965	7.39452	-3.84176	22.04263	31.41082	1.59899	0.6254	32.18465	93.0487	11.73101	0.37178	7.04383	11268.86075	1.06803	6.67596E-4	1823.41167	46985.663	 	8376.719
1265.0	0.86695	0.13305	7.1595	7.38462	-3.97042	21.71063	31.38293	1.59707	0.62615	42.07165	93.607	15.41064	0.36502	7.13737	14151.44142	1.05183	5.30499E-4	1823.92545	46326.459	196.185	8909.911
1260.0	0.90512	0.0948814	7.17038	7.37364	-4.11317	21.3649	31.33589	1.59426	0.62725	54.3599	94.33331	20.01503	0.35798	7.29232	18109.78007	1.02614	4.13198E-4	1824.41245	45588.439	147.604	9452.643
1255.0	0.92887	0.0711262	7.17806	7.36582	-4.21487	21.14158	31.286	1.5916	0.6283	63.0892	94.94713	23.30596	0.3535	7.45546	21540.76935	1.00041	3.46251E-4	1824.64891	45059.702	105.747	9786.511
1250.0	0.94476	0.0552435	7.18402	7.35969	-4.29458	20.98377	31.23449	1.58901	0.62932	69.42126	95.49679	25.70346	0.35043	7.62631	24673.39021	0.9748	3.01301E-4	1824.68659	44644.836	82.9732	10006.923
1245.0	0.95596	0.044037	7.18898	7.35456	-4.36134	20.86448	31.1818	1.58647	0.63033	74.18154	96.00703	27.51151	0.34819	7.80475	27659.9307	0.94938	2.67886E-4	1824.55683	44297.604	69.4464	10160.115
1240.0	0.9642	0.0358022	7.19332	7.35002	-4.42034	20.76818	31.12867	1.58394	0.63134	77.88983	96.49106	28.92333	0.34649	7.98878	30601.05138	0.92446	2.41342E-4	1824.30821	43993.286	60.8636	10270.808
1235.0	0.97045	0.0295502	7.19724	7.3459	-4.47397	20.68771	31.07515	1.58143	0.63234	80.87313	96.95739	30.06119	0.34514	8.17965	33567.72396	0.8999	2.19285E-4	1823.946	43717.623	55.1326	10353.261
1230.0	0.97532	0.0246787	7.20089	7.34205	-4.52405	20.61764	31.02135	1.57892	0.63335	83.34135	97.41083	31.00396	0.34404	8.37625	36612.16895	0.87587	2.00384E-4	1823.49444	43461.894	51.1458	10416.192
1225.0	0.9792	0.020797	7.20434	7.33839	-4.57157	20.55498	30.96737	1.57641	0.63435	85.43444	97.85486	31.80438	0.34312	8.57872	39776.05629	0.85235	1.83832E-4	1822.96603	43220.512	48.2764	10465.187
1222.83	0.98063	0.0193651	7.20579	7.33686	-4.59155	20.52966	30.94387	1.57532	0.63479	86.24588	98.04513	32.11491	0.34277	8.66836	41193.18878	0.84232	1.7725E-4	1822.71801	43119.396	 	10482.918
1222.83	0.98063	0.0193651	7.20579	7.33686	-4.59155	20.52966	30.94387	1.57532	0.63479	86.24588	98.04513	32.11491	0.34277	8.66836	41193.18878	0.84232	1.7725E-4	1822.71801	43119.396	 	10482.918
1220.0	0.98284	0.0171635	7.20777	7.33476	-4.61881	20.49268	30.91215	1.57395	0.63534	87.4773	98.30352	32.58698	0.34221	8.779	43180.59002	0.83013	1.68772E-4	1821.86393	42979.378	48.2268	10514.341
1215.0	0.98605	0.0139488	7.21117	7.33118	-4.66543	20.43181	30.85664	1.57151	0.63633	89.38156	98.75115	33.31751	0.34136	8.98016	46809.19116	0.80882	1.55168E-4	1820.31803	42742.736	47.3284	10559.409
1210.0	0.9886	0.0114045	7.21445	7.32771	-4.71051	20.3753	30.80142	1.56903	0.63734	91.01331	99.18983	33.94401	0.34064	9.1868	50619.44059	0.78797	1.43006E-4	1818.74529	42516.868	45.1736	10594.107
1205.0	0.99065	0.00934739	7.21765	7.32433	-4.75445	20.32196	30.74634	1.56654	0.63835	92.44597	99.62179	34.49442	0.34001	9.39884	54651.24258	0.76759	1.32009E-4	1817.14821	42298.871	43.5994	10621.335
1200.0	0.99235	0.00765213	7.22078	7.32102	-4.79752	20.27091	30.69135	1.56404	0.63937	93.72974	100.04856	34.98791	0.33946	9.61626	58940.85194	0.7477	1.21988E-4	1815.53267	42086.801	42.414	10643.036
1195.0	0.99377	0.00623381	7.22387	7.31776	-4.83992	20.22159	30.63643	1.56153	0.6404	94.89878	100.47126	35.43753	0.33896	9.83884	63522.36424	0.7283	1.12806E-4	1813.9101	41879.312	41.4978	10660.553
1190.0	0.99497	0.00503232	7.22692	7.31454	-4.88176	20.17366	30.58157	1.559	0.64144	95.97857	100.89069	35.853	0.3385	10.06665	68430.51544	0.7094	1.04358E-4	1812.28085	41675.443	40.7738	10674.845
1185.0	0.996	0.004001	7.22995	7.31136	-4.92311	20.12689	30.52659	1.55647	0.64248	96.98736	101.3075	36.24131	0.33808	10.30026	73700.67385	0.69094	9.65645E-5	1810.64175	41474.493	40.19	10686.611
1180.0	0.99689	0.00310877	7.23295	7.30821	-4.96406	20.08099	30.47177	1.55393	0.64353	97.93905	101.72197	36.60779	0.33768	10.53956	79369.92708	0.67294	8.93596E-5	1808.99985	41275.939	39.7108	10696.372
1175.0	0.99767	0.00232864	7.23592	7.30509	-5.00468	20.03581	30.41703	1.55137	0.64459	98.84341	102.13439	36.95617	0.33731	10.7838	85477.04404	0.65543	8.26896E-5	1807.36485	41079.382	39.3114	10704.525
1170.0	0.99836	0.0016409	7.23888	7.30199	-5.04496	19.99133	30.36235	1.54879	0.64566	99.70863	102.54508	37.28959	0.33695	11.03441	92064.3493	0.63834	7.6508E-5	1805.72408	40884.515	38.9734	10711.375
1165.0	0.99897	0.00103208	7.24182	7.29891	-5.08497	19.94734	30.30777	1.54621	0.64674	100.54191	102.95423	37.61081	0.33661	11.28996	99178.03807	0.62173	7.07743E-5	1804.10125	40691.095	38.684	10717.163
1160.0	0.99951	4.87638E-4	7.24475	7.29586	-5.12471	19.90385	30.2533	1.54361	0.64783	101.34761	103.36193	37.92151	0.33628	11.55227	106866.985	0.6055	6.54538E-5	1802.4721	40498.93	38.433	10722.079
1155.0	1.0	0.0	7.24766	7.29282	-5.16422	19.86077	30.19888	1.54099	0.64893	102.13009	103.76832	38.22335	0.33596	 	115185.3198	 	6.0515E-5	 	40307.867	38.2126	10726.275
1150.0	1.0	0.0	7.25001	7.29046	-5.19493	19.84661	30.14239	1.53848	0.64999	102.65119	104.16682	38.42431	0.33576	 	123960.0509	 	5.60345E-5	 	40095.62	42.4494	 
1145.0	1.0	0.0	7.25236	7.2881	-5.22561	19.83247	30.08591	1.53595	0.65106	103.17261	104.56465	38.62545	0.33555	 	133474.4038	 	5.18574E-5	 	39912.552	36.6136	 
1140.0	1.0	0.0	7.2547	7.28574	-5.25624	19.81833	30.02942	1.53341	0.65214	103.69431	104.96178	38.82676	0.33535	 	143796.5151	 	4.79652E-5	 	39729.686	36.5732	 
1135.0	1.0	0.0	7.25704	7.28339	-5.28683	19.80422	29.97293	1.53087	0.65322	104.2163	105.35821	39.02824	0.33514	 	155001.3191	 	4.43405E-5	 	39547.033	36.5306	 
1130.0	1.0	0.0	7.25939	7.28104	-5.31738	19.79011	29.91644	1.52831	0.65432	104.73854	105.7539	39.22987	0.33493	 	167171.2765	 	4.09665E-5	 	39364.601	36.4864	 
1125.0	1.0	0.0	7.26173	7.2787	-5.34789	19.77603	29.85995	1.52575	0.65542	105.26103	106.14886	39.43166	0.33473	 	180397.187	 	3.78278E-5	 	39182.394	36.4414	 
1120.0	1.0	0.0	7.26406	7.27635	-5.37835	19.76195	29.80346	1.52317	0.65652	105.78375	106.54307	39.6336	0.33452	 	194779.0957	 	3.49094E-5	 	39000.411	36.3966	 
1115.0	1.0	0.0	7.2664	7.27401	-5.40878	19.74789	29.74697	1.52059	0.65764	106.30667	106.93651	39.83567	0.33431	 	210427.3051	 	3.21974E-5	 	38818.65	36.3522	 
1110.0	1.0	0.0	7.26873	7.27168	-5.43916	19.73385	29.69048	1.51799	0.65876	106.82979	107.32917	40.03789	0.33411	 	227463.5045	 	2.96787E-5	 	38637.11	36.308	 
1105.0	1.0	0.0	7.27107	7.26934	-5.4695	19.71982	29.63399	1.51539	0.6599	107.35309	107.72105	40.24023	0.3339	 	246022.0334	 	2.73407E-5	 	38455.79	36.264	 
1100.0	1.0	0.0	7.2734	7.26701	-5.4998	19.70581	29.5775	1.51277	0.66104	107.87656	108.11211	40.44269	0.3337	 	266251.2938	 	2.51717E-5	 	38274.688	36.2204	 
1095.0	1.0	0.0	7.27573	7.26469	-5.53005	19.69181	29.52101	1.51015	0.66219	108.40017	108.50236	40.64528	0.33349	 	288315.3313	 	2.31608E-5	 	38093.802	36.1772	 
1090.0	1.0	0.0	7.27806	7.26236	-5.56027	19.67783	29.46452	1.50752	0.66334	108.92391	108.89178	40.84797	0.33328	 	312395.606	 	2.12973E-5	 	37913.132	36.134	 
1085.0	1.0	0.0	7.28038	7.26004	-5.59044	19.66386	29.40803	1.50487	0.66451	109.44777	109.28036	41.05078	0.33308	 	338692.9775	 	1.95717E-5	 	37732.675	36.0914	 
1080.0	1.0	0.0	7.28271	7.25773	-5.62057	19.6499	29.35154	1.50222	0.66568	109.97174	109.66809	41.25368	0.33287	 	367429.9311	 	1.79746E-5	 	37552.43	36.049	 
1075.0	1.0	0.0	7.28503	7.25541	-5.65067	19.63596	29.29505	1.49955	0.66687	110.49579	110.05495	41.45668	0.33267	 	398853.0776	 	1.64973E-5	 	37372.395	36.007	 
1070.0	1.0	0.0	7.28735	7.2531	-5.68071	19.62204	29.23856	1.49688	0.66806	111.01991	110.44093	41.65976	0.33246	 	433235.9604	 	1.51317E-5	 	37192.568	35.9654	 
1065.0	1.0	0.0	7.28967	7.25079	-5.71072	19.60813	29.18207	1.49419	0.66926	111.54408	110.82603	41.86294	0.33225	 	470882.2123	 	1.38701E-5	 	37012.948	35.924	 
1060.0	1.0	0.0	7.29199	7.24849	-5.74069	19.59423	29.12558	1.4915	0.67047	112.0683	111.21022	42.06619	0.33205	 	512129.1064	 	1.27053E-5	 	36833.534	35.8828	 
1055.0	1.0	0.0	7.2943	7.24619	-5.77062	19.58035	29.06909	1.48879	0.67169	112.59255	111.5935	42.26951	0.33184	 	557351.5549	 	1.16307E-5	 	36654.322	35.8424	 
1050.0	1.0	0.0	7.29662	7.24389	-5.8005	19.56649	29.0126	1.48607	0.67291	113.11681	111.97586	42.4729	0.33164	 	606966.614	 	1.06397E-5	 	36475.312	35.802	 
1045.0	1.0	0.0	7.29893	7.24159	-5.83035	19.55263	28.95611	1.48335	0.67415	113.64107	112.35729	42.67635	0.33143	 	661438.565	 	9.72662E-6	 	36296.501	35.7622	 
1040.0	1.0	0.0	7.30124	7.2393	-5.86015	19.5388	28.89963	1.48061	0.6754	114.16531	112.73778	42.87986	0.33122	 	721284.6487	 	8.88576E-6	 	36117.888	35.7226	 
1035.0	1.0	0.0	7.30355	7.23701	-5.88991	19.52498	28.84314	1.47786	0.67666	114.68953	113.11731	43.08342	0.33102	 	787081.5418	 	8.11194E-6	 	35939.47	35.6836	 
1030.0	1.0	0.0	7.30586	7.23473	-5.91963	19.51117	28.78666	1.4751	0.67792	115.2137	113.49587	43.28703	0.33081	 	859472.6789	 	7.4003E-6	 	35761.245	35.645	 
1025.0	1.0	0.0	7.30816	7.23245	-5.94931	19.49738	28.73018	1.47233	0.6792	115.73781	113.87346	43.49068	0.3306	 	939176.5352	 	6.74628E-6	 	35583.212	35.6066	 
1020.0	1.0	0.0	7.31047	7.23017	-5.97896	19.4836	28.67369	1.46955	0.68048	116.26185	114.25007	43.69437	0.3304	 	1026996.006	 	6.14564E-6	 	35405.368	35.5688	 
1015.0	1.0	0.0	7.31277	7.22789	-6.00855	19.46984	28.61722	1.46675	0.68178	116.7858	114.62568	43.89808	0.33019	 	1123829.036	 	5.59439E-6	 	35227.711	35.5314	 
1010.0	1.0	0.0	7.31507	7.22562	-6.03811	19.45609	28.56074	1.46395	0.68308	117.30965	115.00029	44.10182	0.32999	 	1230680.673	 	5.08884E-6	 	35050.238	35.4946	 
1005.0	1.0	0.0	7.31737	7.22335	-6.06763	19.44236	28.50426	1.46113	0.6844	117.83339	115.37388	44.30558	0.32978	 	1348676.755	 	4.62552E-6	 	34872.948	35.458	 
1000.0	1.0	0.0	7.31967	7.22108	-6.09711	19.42864	28.44779	1.45831	0.68573	118.35701	115.74645	44.50936	0.32957	 	1479079.455	 	4.20121E-6	 	34695.838	35.422	 
995.0	1.0	0.0	7.32196	7.21882	-6.12655	19.41494	28.39132	1.45547	0.68706	118.88048	116.11798	44.71315	0.32937	 	1623304.967	 	3.81292E-6	 	34518.905	35.3866	 
990.0	1.0	0.0	7.32425	7.21656	-6.15595	19.40125	28.33486	1.45262	0.68841	119.4038	116.48847	44.91694	0.32916	 	1782943.623	 	3.45783E-6	 	34342.147	35.3516	 
