T (C)	Fraction solid (wt)-TOTAL	Fraction liquid (wt)-LIQUID	Density (g/(cm)^3)-TOTAL	Molar volume (cm^3)-TOTAL	Volume change (%)-  	Average expansion coeff. (10e-6 1/K)-  	Thermal conductivity (W/(m*K))-TOTAL	Electrical resistivity (10e-6 Ohm*m)-TOTAL	Electrical conductivity (10e6 1/(Ohm*m))-TOTAL	Young's modulus (GPa)-TOTAL	Bulk modulus (GPa)-TOTAL	Shear modulus(GPa)-TOTAL	Poisson's ratio-TOTAL	Liquid viscosity (mPa s)-  	Total viscosity (mPa s)-  	Liquid diffusivity (10e-9 (m^2)/s)-  	Total diffusivity (10e-9 (m^2)/s)-  	Surface Tension (mN/m)-  	Enthalpy (J/mole)-TOTAL	Specific heat (J/(mole K))-TOTAL	Latent heat (J/mole)-TOTAL
1500.0	0.0	1.0	7.01142	7.89561	0.0	28.99405	30.8588	1.87234	0.53409	0.0	107.26953	0.0	0.49776	6.78376	6.78376	1.27574	1.27574	1770.28583	64581.803	 	0.0
1495.0	0.0	1.0	7.01532	7.89121	-0.0556464	28.9503	30.78221	1.8717	0.53427	0.0	107.45416	0.0	0.49776	6.84351	6.84351	1.26103	1.26103	1772.08415	64361.744	44.0118	0.0
1490.0	0.0	1.0	7.01922	7.88683	-0.11114	28.90665	30.70561	1.87107	0.53445	0.0	107.6388	0.0	0.49776	6.90414	6.90414	1.24642	1.24642	1773.87942	64142.172	43.9144	0.0
1485.0	0.0	1.0	7.02311	7.88246	-0.16648	28.86309	30.62902	1.87043	0.53464	0.0	107.82343	0.0	0.49776	6.96566	6.96566	1.23191	1.23191	1775.67162	63923.084	43.8176	0.0
1480.0	0.0	1.0	7.02699	7.8781	-0.22166	28.81963	30.55242	1.86978	0.53482	0.0	108.00807	0.0	0.49776	7.02808	7.02808	1.2175	1.2175	1777.4607	63704.476	43.7216	0.0
1475.0	0.0	1.0	7.03087	7.87376	-0.27669	28.77628	30.47583	1.86914	0.53501	0.0	108.19271	0.0	0.49776	7.09142	7.09142	1.20318	1.20318	1779.24663	63486.345	43.6262	0.0
1470.0	0.0	1.0	7.03474	7.86943	-0.33157	28.73302	30.39923	1.86849	0.53519	0.0	108.37734	0.0	0.49776	7.1557	7.1557	1.18897	1.18897	1781.02937	63268.688	43.5314	0.0
1465.0	0.0	1.0	7.03861	7.86511	-0.38629	28.68987	30.32263	1.86783	0.53538	0.0	108.56198	0.0	0.49776	7.22094	7.22094	1.17484	1.17484	1782.80888	63051.502	43.4372	0.0
1460.0	0.0	1.0	7.04246	7.8608	-0.44085	28.64682	30.24604	1.86718	0.53557	0.0	108.74662	0.0	0.49776	7.28715	7.28715	1.16082	1.16082	1784.58513	62834.784	43.3436	0.0
1455.0	0.0	1.0	7.04631	7.8565	-0.49527	28.60387	30.16944	1.86652	0.53576	0.0	108.93125	0.0	0.49776	7.35436	7.35436	1.14689	1.14689	1786.35807	62618.531	43.2506	0.0
1450.0	0.0	1.0	7.05016	7.85222	-0.54952	28.56103	30.09285	1.86585	0.53595	0.0	109.11589	0.0	0.49776	7.42258	7.42258	1.13306	1.13306	1788.12766	62402.772	43.1518	0.0
1445.0	0.0	1.0	7.054	7.84795	-0.60363	28.5183	30.01625	1.86519	0.53614	0.0	109.30053	0.0	0.49776	7.49185	7.49185	1.11933	1.11933	1789.89386	62187.558	43.0428	0.0
1440.0	0.0	1.0	7.05783	7.84369	-0.65758	28.47568	29.93966	1.86452	0.53633	0.0	109.48516	0.0	0.49776	7.56216	7.56216	1.1057	1.1057	1791.65663	61972.878	42.936	0.0
1435.0	0.0	1.0	7.06165	7.83944	-0.71137	28.43316	29.86306	1.86384	0.53653	0.0	109.6698	0.0	0.49776	7.63356	7.63356	1.09216	1.09216	1793.41593	61758.731	42.8294	0.0
1430.0	0.0	1.0	7.06547	7.8352	-0.76502	28.39075	29.78647	1.86317	0.53672	0.0	109.85443	0.0	0.49776	7.70605	7.70605	1.07872	1.07872	1795.1717	61545.112	42.7238	0.0
1425.0	0.0	1.0	7.06928	7.83098	-0.8185	28.34846	29.70987	1.86249	0.53692	0.0	110.03907	0.0	0.49776	7.77966	7.77966	1.06537	1.06537	1796.92391	61332.018	42.6188	0.0
1420.0	0.0	1.0	7.07308	7.82677	-0.87184	28.30628	29.63328	1.8618	0.53711	0.0	110.22371	0.0	0.49776	7.85442	7.85442	1.05213	1.05213	1798.67252	61119.445	42.5146	0.0
1417.8	0.0	1.0	7.07475	7.82492	-0.89523	28.28778	29.59961	1.8615	0.5372	0.0	110.30486	0.0	0.49776	7.88765	7.88765	1.04633	1.04633	1799.43992	61026.198	42.4305	0.0
1415.0	0.11076	0.88924	7.09352	7.80417	-1.15807	27.63361	29.77149	1.84769	0.54122	0.0115612	109.43835	0.00389823	0.48288	7.92922	10.69341	1.03912	0.77052	1798.36303	59634.092	496.762	1273.294
1410.85	0.24822	0.75178	7.11729	7.77815	-1.48756	26.82227	29.98451	1.83005	0.54643	0.29695	108.39967	0.1014	0.46423	7.99122	51.21484	1.02852	0.16048	1796.86219	57884.028	 	2847.575
1410.0	0.27804	0.72196	7.12255	7.77241	-1.56029	26.64113	30.06355	1.82432	0.54815	0.40825	107.91015	0.13981	0.46004	8.00005	74.05691	1.02687	0.11093	1796.3937	57532.973	420.224	3162.873
1405.0	0.43254	0.56746	7.15013	7.74241	-1.94023	25.7022	30.47363	1.79442	0.55728	1.60658	105.5122	0.55854	0.4382	8.05285	378.47485	1.01711	0.0216412	1793.79282	55688.186	368.957	4796.628
1400.0	0.54535	0.45465	7.1712	7.71968	-2.22814	25.00813	30.76596	1.77207	0.56431	3.64028	103.93159	1.27992	0.42208	8.10666	968.29938	1.00735	0.00843358	1791.38163	54282.92	281.053	5991.369
1395.0	0.6301	0.3699	7.18788	7.70181	-2.45454	24.47789	30.97594	1.7548	0.56986	6.47534	102.88829	2.29646	0.40985	8.16153	1792.96077	0.99759	0.00454099	1789.14214	53174.174	221.749	6890.091
1390.0	0.69536	0.30464	7.20157	7.68721	-2.6394	24.0582	31.12273	1.74129	0.57429	10.1459	102.20882	3.62265	0.40034	8.2172	2788.10534	0.98786	0.00291145	1787.05923	52271.568	180.521	7583.173
1385.0	0.74672	0.25328	7.21313	7.67493	-2.79496	23.71646	31.22547	1.73034	0.57792	14.70022	101.78259	5.27728	0.39279	8.27401	3903.28253	0.97812	0.00207339	1785.11722	51516.629	150.988	8129.085
1380.0	0.78789	0.21211	7.22316	7.66433	-2.92919	23.4314	31.29563	1.72126	0.58097	20.11559	101.53756	7.25323	0.38666	8.33199	5105.47939	0.96839	0.00158038	1783.30123	50870.203	129.285	8566.978
1375.0	0.82143	0.17857	7.23207	7.65497	-3.04772	23.18797	31.34113	1.71356	0.58358	26.24729	101.42471	9.49872	0.38162	8.39116	6375.38555	0.95865	0.00126176	1781.59803	50305.355	112.97	8923.782
1370.0	0.84916	0.15084	7.24013	7.64654	-3.15451	22.97556	31.36764	1.70692	0.58585	32.84178	101.40969	11.9216	0.37741	8.45184	7703.58686	0.94888	0.00104105	1779.9957	49803.096	100.452	9218.484
1365.0	0.87237	0.12763	7.24756	7.63879	-3.2527	22.7857	31.3792	1.7011	0.58786	39.59415	101.46851	14.41013	0.37383	8.51371	9087.13737	0.93912	8.79859E-4	1778.48638	49349.741	90.671	9464.766
1360.0	0.89201	0.10799	7.25451	7.63158	-3.34402	22.61378	31.37897	1.69592	0.58965	46.2183	101.58409	16.85861	0.37076	8.57673	10526.89335	0.92938	7.57203E-4	1777.05821	48935.226	82.903	9672.689
1355.0	0.9088	0.0911954	7.26108	7.62478	-3.43007	22.45546	31.36913	1.69126	0.59128	52.49577	101.74347	19.18563	0.3681	8.6413	12026.29588	0.91961	6.60768E-4	1775.70386	48552.016	76.642	9849.784
1350.3	0.92255	0.0774474	7.26702	7.61866	-3.50757	22.31522	31.35295	1.68724	0.59268	57.9957	101.9243	21.23001	0.36589	8.70323	13500.6044	0.91042	5.8691E-4	1774.48812	48214.4	 	9993.923
1350.0	0.92371	0.0762895	7.26753	7.61813	-3.51428	22.30115	31.35304	1.68693	0.59279	58.46922	101.9321	21.40622	0.36571	8.70818	13615.7113	0.90974	5.81842E-4	1774.49341	48189.441	72.515	10006.72
1345.0	0.94211	0.0578937	7.27591	7.60955	-3.62299	22.0759	31.35049	1.68187	0.59458	66.13693	102.0853	24.26551	0.36278	8.79493	15626.80052	0.89799	5.054E-4	1774.57818	47782.709	81.3464	10208.283
1340.0	0.9575	0.042498	7.28359	7.60171	-3.72232	21.87573	31.33687	1.6774	0.59616	72.68136	102.2831	26.71563	0.36028	8.8835	17696.95988	0.88629	4.449E-4	1774.6687	47410.857	74.3704	10375.436
1335.0	0.97055	0.0294465	7.29075	7.59442	-3.8146	21.6943	31.31442	1.6734	0.59759	78.26219	102.51412	28.81279	0.35812	8.97395	19840.16778	0.87464	3.95611E-4	1774.76589	47066.41	68.8894	10515.651
1330.0	0.98175	0.0182526	7.2975	7.58757	-3.90134	21.52745	31.28487	1.66977	0.59888	83.07554	102.77044	30.62758	0.35622	9.0663	22070.99176	0.86304	3.54519E-4	1774.86583	46743.842	64.5136	10634.449
1325.0	0.99145	0.008552	7.30394	7.58106	-3.98377	21.37177	31.2495	1.66645	0.60008	87.30429	103.04637	32.22652	0.35454	9.16108	24404.59865	0.85145	3.19619E-4	1774.96647	46438.998	60.9688	10735.984
1320.0	1.0	0.0	7.31016	7.57479	-4.06327	21.22339	31.20953	1.66336	0.60119	91.12745	103.33699	33.67544	0.35303	 	26863.49938	 	2.89455E-4	 	46148.15	58.1696	10823.98
1315.0	1.0	0.0	7.31276	7.5721	-4.09733	21.20636	31.14368	1.66165	0.60181	91.57183	103.69185	33.84494	0.35281	 	28584.9803	 	2.71169E-4	 	45940.446	41.5408	 
1310.0	1.0	0.0	7.31535	7.56941	-4.13133	21.18934	31.07783	1.65993	0.60244	92.01644	104.04596	34.01458	0.3526	 	30428.90768	 	2.53935E-4	 	45748.029	38.4834	 
1305.0	1.0	0.0	7.31794	7.56673	-4.16529	21.17233	31.01198	1.6582	0.60306	92.46127	104.39931	34.18436	0.35239	 	32404.82132	 	2.37698E-4	 	45555.92	38.4218	 
1300.0	1.0	0.0	7.32053	7.56405	-4.1992	21.15534	30.94612	1.65646	0.6037	92.90633	104.75189	34.35427	0.35218	 	34523.06719	 	2.22406E-4	 	45364.106	38.3628	 
1295.0	1.0	0.0	7.32312	7.56138	-4.23305	21.13837	30.88026	1.65472	0.60433	93.35159	105.10371	34.52431	0.35197	 	36794.87076	 	2.08011E-4	 	45172.583	38.3046	 
1290.0	1.0	0.0	7.32571	7.55871	-4.26686	21.12141	30.8144	1.65297	0.60497	93.79705	105.45475	34.69447	0.35176	 	39232.41744	 	1.94465E-4	 	44981.35	38.2466	 
1285.0	1.0	0.0	7.32829	7.55605	-4.30062	21.10447	30.74854	1.65121	0.60562	94.24271	105.805	34.86477	0.35155	 	41848.94095	 	1.81724E-4	 	44790.407	38.1886	 
1280.0	1.0	0.0	7.33087	7.55339	-4.33432	21.08754	30.68268	1.64944	0.60626	94.68855	106.15447	35.03518	0.35134	 	44658.82033	 	1.69743E-4	 	44599.752	38.131	 
1275.0	1.0	0.0	7.33345	7.55073	-4.36798	21.07063	30.61682	1.64767	0.60692	95.13456	106.50314	35.20571	0.35112	 	47677.6866	 	1.58484E-4	 	44409.386	38.0732	 
1270.0	1.0	0.0	7.33603	7.54807	-4.40158	21.05374	30.55096	1.64589	0.60757	95.58074	106.85101	35.37636	0.35091	 	50922.54001	 	1.47906E-4	 	44219.308	38.0156	 
1265.0	1.0	0.0	7.33861	7.54543	-4.43514	21.03686	30.48509	1.6441	0.60823	96.02709	107.19807	35.54712	0.3507	 	54411.87906	 	1.37972E-4	 	44029.519	37.9578	 
1260.0	1.0	0.0	7.34118	7.54278	-4.46864	21.01999	30.41923	1.64231	0.6089	96.47358	107.54432	35.71798	0.35049	 	58165.8425	 	1.28648E-4	 	43840.018	37.9002	 
1255.0	1.0	0.0	7.34375	7.54014	-4.5021	21.00315	30.35336	1.6405	0.60957	96.92021	107.88975	35.88896	0.35028	 	62206.36569	 	1.199E-4	 	43650.805	37.8426	 
1250.0	1.0	0.0	7.34632	7.5375	-4.5355	20.98631	30.28749	1.63869	0.61024	97.36698	108.23436	36.06004	0.35007	 	66557.35297	 	1.11695E-4	 	43461.879	37.7852	 
1245.0	1.0	0.0	7.34889	7.53487	-4.56886	20.9695	30.22162	1.63687	0.61092	97.81387	108.57814	36.23121	0.34986	 	71244.8676	 	1.04003E-4	 	43273.241	37.7276	 
1240.0	1.0	0.0	7.35145	7.53224	-4.60216	20.95269	30.15575	1.63504	0.6116	98.26089	108.92109	36.40249	0.34965	 	76297.3414	 	9.67964E-5	 	43084.885	37.6712	 
1235.0	1.0	0.0	7.35402	7.52961	-4.63542	20.93591	30.08987	1.63321	0.61229	98.70801	109.26319	36.57386	0.34943	 	81745.80605	 	9.00463E-5	 	42896.808	37.6154	 
1230.0	1.0	0.0	7.35658	7.52699	-4.66862	20.91914	30.024	1.63137	0.61298	99.15524	109.60446	36.74532	0.34922	 	87624.14856	 	8.37269E-5	 	42709.008	37.56	 
1225.0	1.0	0.0	7.35914	7.52437	-4.70178	20.90238	29.95812	1.62952	0.61368	99.60256	109.94487	36.91687	0.34901	 	93969.39356	 	7.78136E-5	 	42521.485	37.5046	 
1220.0	1.0	0.0	7.3617	7.52176	-4.73489	20.88564	29.89225	1.62766	0.61438	100.04997	110.28442	37.08851	0.3488	 	100822.0154	 	7.22828E-5	 	42334.238	37.4494	 
1215.0	1.0	0.0	7.36425	7.51915	-4.76794	20.86892	29.82637	1.62579	0.61509	100.49745	110.62312	37.26023	0.34859	 	108226.2834	 	6.71121E-5	 	42147.268	37.394	 
1210.0	1.0	0.0	7.36681	7.51654	-4.80095	20.85221	29.76049	1.62391	0.6158	100.94501	110.96095	37.43203	0.34838	 	116230.644	 	6.22804E-5	 	41960.572	37.3392	 
1205.0	1.0	0.0	7.36936	7.51394	-4.83391	20.83552	29.69461	1.62203	0.61651	101.39263	111.29792	37.6039	0.34817	 	124888.1442	 	5.77676E-5	 	41774.151	37.2842	 
1200.0	1.0	0.0	7.37191	7.51134	-4.86682	20.81885	29.62872	1.62014	0.61723	101.84031	111.634	37.77586	0.34796	 	134256.9001	 	5.35546E-5	 	41588.003	37.2296	 
1195.0	1.0	0.0	7.37445	7.50875	-4.89968	20.80219	29.56284	1.61824	0.61796	102.28804	111.96921	37.94788	0.34774	 	144400.6178	 	4.96236E-5	 	41402.129	37.1748	 
1190.0	1.0	0.0	7.377	7.50616	-4.93249	20.78554	29.49695	1.61633	0.61869	102.73581	112.30354	38.11997	0.34753	 	155389.1697	 	4.59573E-5	 	41216.527	37.1204	 
1185.0	1.0	0.0	7.37954	7.50357	-4.96525	20.76891	29.43107	1.61441	0.61942	103.18361	112.63698	38.29213	0.34732	 	167299.2359	 	4.25398E-5	 	41031.196	37.0662	 
1180.0	1.0	0.0	7.38208	7.50099	-4.99797	20.7523	29.36518	1.61248	0.62016	103.63144	112.96952	38.46436	0.34711	 	180215.0152	 	3.93556E-5	 	40846.137	37.0118	 
1175.0	1.0	0.0	7.38462	7.49841	-5.03063	20.7357	29.29929	1.61055	0.62091	104.07929	113.30117	38.63664	0.3469	 	194229.017	 	3.63903E-5	 	40661.347	36.958	 
1170.0	1.0	0.0	7.38716	7.49583	-5.06324	20.71912	29.2334	1.60861	0.62166	104.52715	113.63192	38.80898	0.34669	 	209442.9407	 	3.36304E-5	 	40476.827	36.904	 
1165.0	1.0	0.0	7.38969	7.49326	-5.09581	20.70255	29.1675	1.60666	0.62241	104.97501	113.96176	38.98138	0.34648	 	225968.6553	 	3.10629E-5	 	40292.576	36.8502	 
1160.0	1.0	0.0	7.39223	7.49069	-5.12833	20.686	29.10161	1.60469	0.62317	105.42287	114.29069	39.15383	0.34627	 	243929.2901	 	2.86757E-5	 	40108.593	36.7966	 
1155.0	1.0	0.0	7.39476	7.48813	-5.1608	20.66946	29.03571	1.60273	0.62394	105.87072	114.61871	39.32634	0.34605	 	263460.4505	 	2.64573E-5	 	39924.878	36.743	 
1150.0	1.0	0.0	7.39729	7.48557	-5.19322	20.65294	28.96981	1.60075	0.62471	106.31855	114.94581	39.49888	0.34584	 	284711.5731	 	2.43968E-5	 	39741.428	36.69	 
1145.0	1.0	0.0	7.39981	7.48301	-5.22559	20.63644	28.90391	1.59876	0.62548	106.76636	115.27199	39.67148	0.34563	 	307847.4386	 	2.2484E-5	 	39558.245	36.6366	 
1140.0	1.0	0.0	7.40234	7.48046	-5.25791	20.61995	28.83801	1.59676	0.62627	107.21414	115.59725	39.84412	0.34542	 	333049.8606	 	2.07093E-5	 	39375.327	36.5836	 
1135.0	1.0	0.0	7.40486	7.47791	-5.29019	20.60348	28.77211	1.59476	0.62705	107.66188	115.92158	40.01679	0.34521	 	360519.573	 	1.90637E-5	 	39192.673	36.5308	 
1130.0	1.0	0.0	7.40738	7.47537	-5.32241	20.58702	28.70621	1.59274	0.62785	108.10957	116.24497	40.1895	0.345	 	390478.3398	 	1.75386E-5	 	39010.283	36.478	 
1125.0	1.0	0.0	7.4099	7.47283	-5.35459	20.57058	28.6403	1.59072	0.62865	108.55721	116.56743	40.36225	0.34479	 	423171.3165	 	1.61259E-5	 	38828.155	36.4256	 
1120.0	1.0	0.0	7.41241	7.47029	-5.38672	20.55415	28.57439	1.58869	0.62945	109.00479	116.88894	40.53503	0.34457	 	458869.6936	 	1.48182E-5	 	38646.29	36.373	 
1115.0	1.0	0.0	7.41493	7.46776	-5.4188	20.53774	28.50849	1.58665	0.63026	109.4523	117.20952	40.70784	0.34436	 	497873.6585	 	1.36083E-5	 	38464.685	36.321	 
1110.0	1.0	0.0	7.41744	7.46523	-5.45084	20.52135	28.44258	1.58459	0.63108	109.89974	117.52914	40.88068	0.34415	 	540515.7164	 	1.24896E-5	 	38283.341	36.2688	 
1105.0	1.0	0.0	7.41995	7.4627	-5.48282	20.50497	28.37666	1.58253	0.6319	110.3471	117.84782	41.05354	0.34394	 	587164.4176	 	1.14557E-5	 	38102.257	36.2168	 
1100.0	1.0	0.0	7.42246	7.46018	-5.51476	20.4886	28.31075	1.58046	0.63273	110.79437	118.16554	41.22642	0.34373	 	638228.5408	 	1.05009E-5	 	37921.431	36.1652	 
1095.0	1.0	0.0	7.42496	7.45766	-5.54665	20.47225	28.24483	1.57838	0.63356	111.24155	118.4823	41.39933	0.34352	 	694161.7954	 	9.61966E-6	 	37740.863	36.1136	 
1090.0	1.0	0.0	7.42747	7.45515	-5.57849	20.45592	28.17892	1.57629	0.6344	111.68862	118.79811	41.57225	0.34331	 	755468.1086	 	8.80672E-6	 	37560.552	36.0622	 
1085.0	1.0	0.0	7.42997	7.45264	-5.61028	20.4396	28.113	1.57419	0.63525	112.13559	119.11295	41.74518	0.3431	 	822707.575	 	8.05729E-6	 	37380.498	36.0108	 
1080.0	1.0	0.0	7.43247	7.45013	-5.64203	20.4233	28.04708	1.57209	0.6361	112.58245	119.42682	41.91813	0.34289	 	896503.1576	 	7.36683E-6	 	37200.699	35.9598	 
1075.0	1.0	0.0	7.43497	7.44763	-5.67373	20.40702	27.98116	1.56997	0.63696	113.02919	119.73972	42.09108	0.34267	 	977548.2387	 	6.73111E-6	 	37021.154	35.909	 
1070.0	1.0	0.0	7.43746	7.44513	-5.70538	20.39075	27.91523	1.56784	0.63782	113.4758	120.05165	42.26405	0.34246	 	1066615.139	 	6.14615E-6	 	36841.863	35.8582	 
1065.0	1.0	0.0	7.43996	7.44264	-5.73698	20.37449	27.84931	1.5657	0.63869	113.92227	120.36261	42.43701	0.34225	 	1164564.729	 	5.60826E-6	 	36662.825	35.8076	 
1060.0	1.0	0.0	7.44245	7.44015	-5.76853	20.35826	27.78338	1.56355	0.63957	114.36861	120.67258	42.60998	0.34204	 	1272357.296	 	5.11395E-6	 	36484.038	35.7574	 
1055.0	1.0	0.0	7.44494	7.43766	-5.80004	20.34203	27.71745	1.56139	0.64045	114.8148	120.98158	42.78295	0.34183	 	1391064.815	 	4.66001E-6	 	36305.502	35.7072	 
1050.0	1.0	0.0	7.44743	7.43517	-5.8315	20.32582	27.65152	1.55922	0.64135	115.26084	121.28959	42.95592	0.34162	 	1521884.85	 	4.2434E-6	 	36127.216	35.6572	 
1045.0	1.0	0.0	7.44991	7.43269	-5.86292	20.30963	27.58559	1.55704	0.64224	115.70672	121.59661	43.12888	0.34141	 	1666156.28	 	3.86132E-6	 	35949.179	35.6074	 
1040.0	1.0	0.0	7.45239	7.43022	-5.89428	20.29346	27.51966	1.55485	0.64315	116.15243	121.90264	43.30184	0.3412	 	1825377.132	 	3.51114E-6	 	35771.391	35.5576	 
1035.0	1.0	0.0	7.45487	7.42774	-5.9256	20.2773	27.45372	1.55265	0.64406	116.59797	122.20768	43.47479	0.34098	 	2001224.803	 	3.19042E-6	 	35593.849	35.5084	 
1030.0	1.0	0.0	7.45735	7.42527	-5.95687	20.26115	27.38778	1.55044	0.64498	117.04333	122.51173	43.64772	0.34077	 	2195579.014	 	2.89689E-6	 	35416.553	35.4592	 
1025.0	1.0	0.0	7.45983	7.42281	-5.9881	20.24502	27.32184	1.54822	0.6459	117.48851	122.81477	43.82064	0.34056	 	2410547.895	 	2.62843E-6	 	35239.502	35.4102	 
1020.0	1.0	0.0	7.4623	7.42035	-6.01927	20.22891	27.2559	1.54599	0.64684	117.9335	123.11682	43.99354	0.34035	 	2648497.638	 	2.38307E-6	 	35062.695	35.3614	 
1015.0	1.0	0.0	7.46478	7.41789	-6.0504	20.21281	27.18996	1.54375	0.64778	118.37829	123.41786	44.16643	0.34014	 	2912086.255	 	2.15898E-6	 	34886.132	35.3126	 
1010.0	1.0	0.0	7.46725	7.41544	-6.08149	20.19673	27.12401	1.54149	0.64872	118.82288	123.7179	44.33929	0.33993	 	3204302.019	 	1.95448E-6	 	34709.81	35.2644	 
1005.0	1.0	0.0	7.46972	7.41299	-6.11253	20.18066	27.05807	1.53923	0.64968	119.26726	124.01693	44.51213	0.33972	 	3528507.303	 	1.76798E-6	 	34533.729	35.2162	 
1000.0	1.0	0.0	7.47218	7.41054	-6.14352	20.16461	26.99212	1.53695	0.65064	119.71143	124.31495	44.68494	0.33951	 	3888488.59	 	1.59803E-6	 	34357.887	35.1684	 
995.0	1.0	0.0	7.47465	7.4081	-6.17446	20.14858	26.92617	1.53467	0.65161	120.15537	124.61196	44.85773	0.33929	 	4288513.606	 	1.44328E-6	 	34182.285	35.1204	 
990.0	1.0	0.0	7.47711	7.40566	-6.20535	20.13256	26.86022	1.53237	0.65258	120.59909	124.90795	45.03048	0.33908	 	4733396.617	 	1.30247E-6	 	34006.919	35.0732	 
985.0	1.0	0.0	7.47957	7.40322	-6.2362	20.11655	26.79426	1.53006	0.65357	121.04257	125.20293	45.20321	0.33887	 	5228573.16	 	1.17445E-6	 	33831.79	35.0258	 
980.0	1.0	0.0	7.48203	7.40079	-6.26701	20.10056	26.72831	1.52774	0.65456	121.48581	125.49689	45.37589	0.33866	 	5780185.611	 	1.05815E-6	 	33656.897	34.9786	 
975.0	1.0	0.0	7.48448	7.39836	-6.29777	20.08459	26.66235	1.52541	0.65556	121.92881	125.78982	45.54854	0.33845	 	6395181.3	 	9.52578E-7	 	33482.237	34.932	 
970.0	1.0	0.0	7.48694	7.39593	-6.32848	20.06863	26.59639	1.52307	0.65657	122.37156	126.08174	45.72116	0.33824	 	7081425.07	 	8.5682E-7	 	33307.809	34.8856	 
965.0	1.0	0.0	7.48939	7.39351	-6.35914	20.05269	26.53043	1.52071	0.65759	122.81405	126.37262	45.89373	0.33803	 	7847828.577	 	7.70035E-7	 	33133.614	34.839	 
960.0	1.0	0.0	7.49184	7.3911	-6.38976	20.03676	26.46446	1.51835	0.65861	123.25628	126.66248	46.06625	0.33782	 	8704498.931	 	6.91447E-7	 	32959.648	34.7932	 
955.0	1.0	0.0	7.49429	7.38868	-6.42033	20.02085	26.3985	1.51597	0.65964	123.69823	126.95131	46.23873	0.3376	 	9662909.758	 	6.20341E-7	 	32785.911	34.7474	 
950.0	1.0	0.0	7.49673	7.38627	-6.45086	20.00496	26.33253	1.51358	0.66069	124.13992	127.23911	46.41116	0.33739	 	1.073609826E7	 	5.56058E-7	 	32612.402	34.7018	 
945.0	1.0	0.0	7.49918	7.38387	-6.48134	19.98908	26.26656	1.51118	0.66174	124.58132	127.52588	46.58354	0.33718	 	1.193889244E7	 	4.97993E-7	 	32439.119	34.6566	 
940.0	1.0	0.0	7.50162	7.38146	-6.51177	19.97322	26.20059	1.50876	0.66279	125.02244	127.8116	46.75587	0.33697	 	1.328817339E7	 	4.4559E-7	 	32266.061	34.6116	 
935.0	1.0	0.0	7.50406	7.37906	-6.54216	19.95737	26.13461	1.50634	0.66386	125.46326	128.09629	46.92815	0.33676	 	1.480317836E7	 	3.98339E-7	 	32093.226	34.567	 
