T (C)	Fraction solid (wt)-TOTAL	Fraction liquid (wt)-LIQUID	Density (g/(cm)^3)-TOTAL	Molar volume (cm^3)-TOTAL	Volume change (%)-  	Average expansion coeff. (10e-6 1/K)-  	Thermal conductivity (W/(m*K))-TOTAL	Electrical resistivity (10e-6 Ohm*m)-TOTAL	Electrical conductivity (10e6 1/(Ohm*m))-TOTAL	Young's modulus (GPa)-TOTAL	Bulk modulus (GPa)-TOTAL	Shear modulus(GPa)-TOTAL	Poisson's ratio-TOTAL	Liquid viscosity (mPa s)-  	Total viscosity (mPa s)-  	Liquid diffusivity (10e-9 (m^2)/s)-  	Total diffusivity (10e-9 (m^2)/s)-  	Surface Tension (mN/m)-  	Enthalpy (J/mole)-TOTAL	Specific heat (J/(mole K))-TOTAL	Latent heat (J/mole)-TOTAL
700.0	0.0	1.0	1.5959	15.33945	0.0	52.69731	81.03409	0.29422	3.39877	0.0	24.67816	0.0	0.5	1.23278	1.23278	3.85284	3.85284	543.8811	27791.946	 	0.0
690.0	0.0	1.0	1.59844	15.31511	-0.15867	52.60957	80.344	0.2937	3.40481	0.0	24.81443	0.0	0.5	1.26208	1.26208	3.72473	3.72473	547.3728	27449.247	34.2699	0.0
680.0	0.0	1.0	1.60096	15.29097	-0.31605	52.52638	79.65392	0.29317	3.41099	0.0	24.95071	0.0	0.5	1.29271	1.29271	3.59872	3.59872	550.86465	27106.548	34.2699	0.0
672.09	0.0	1.0	1.60295	15.27201	-0.43961	52.46434	79.10784	0.29274	3.41596	0.0	25.0586	0.0	0.5	1.31795	1.31795	3.50049	3.50049	553.6282	26835.345	34.2696	0.0
670.0	0.0	1.0	1.60347	15.26716	-0.47125	52.45304	78.96456	0.29263	3.41732	0.0	25.08706	0.0	0.5	1.32475	1.32475	3.47484	3.47484	554.35442	26763.718	34.3339	0.124
660.0	2.0E-5	0.99998	1.60597	15.2434	-0.62616	52.37917	78.27483	0.29208	3.42377	4.78626E-19	25.22334	1.59542E-19	0.5	1.35828	1.35828	3.35312	3.35312	557.83607	26420.453	34.3265	0.686
650.0	3.0E-5	0.99997	1.60845	15.21972	-0.7805	52.30622	77.58442	0.29152	3.43033	3.6705E-18	25.35934	1.2235E-18	0.49999	1.39342	1.39342	3.23354	3.23354	561.31861	26077.307	34.3146	1.144
646.68	3.0E-5	0.99997	1.60928	15.21192	-0.83136	52.28361	77.35539	0.29133	3.43254	5.68423E-18	25.4045	1.89475E-18	0.49999	1.40545	1.40545	3.19434	3.19434	562.47251	25963.622	 	1.277
640.0	6.5E-4	0.99935	1.61098	15.19592	-0.93568	52.22587	76.90498	0.29091	3.43753	3.61785E-13	25.49327	1.20601E-13	0.49993	1.42945	1.42945	3.11788	3.11788	564.76443	25720.73	35.6577	16.393
636.63	9.5E-4	0.99905	1.61184	15.18783	-0.98842	52.19585	76.6771	0.29069	3.44005	1.75841E-12	25.53809	5.86177E-13	0.4999	1.44188	1.44295	3.07958	3.07729	565.92219	25598.898	 	23.701
630.0	0.48889	0.51111	1.64257	14.90357	-2.84155	41.4679	105.32046	0.21009	4.75978	1.38459	25.8859	0.4876	0.41982	1.46602	134.6227	3.00682	0.0327437	568.99549	21304.765	441.596	4093.741
620.0	0.73277	0.26723	1.65941	14.75221	-3.82826	36.04718	128.19313	0.1707	5.85834	7.39673	26.28701	2.68336	0.37826	1.50651	805.67129	2.8936	0.0054107	573.68267	18981.373	232.339	6081.144
612.56	0.80787	0.19213	1.66535	14.69949	-4.17201	34.34544	136.48704	0.15899	6.28976	11.18933	26.54603	4.0986	0.36502	1.53866	1368.02215	2.80953	0.00315998	577.19162	18137.686	 	6676.5
612.56	0.80787	0.19213	1.66535	14.69949	-4.17201	34.34543	136.48704	0.15899	6.28976	11.18933	26.54603	4.0986	0.36502	1.53866	1368.02215	2.80953	0.00315998	577.19162	18137.684	 	6676.503
610.0	0.82519	0.17481	1.66686	14.68609	-4.2593	33.94523	138.43952	0.15629	6.39823	12.26276	26.63121	4.50211	0.36189	1.55006	1563.50829	2.78082	0.0027569	578.40021	17917.366	106.401	6811.715
600.0	0.87394	0.12606	1.67155	14.64459	-4.52986	32.79972	143.68115	0.14889	6.71653	15.78108	26.95331	5.83233	0.3529	1.59631	2386.35989	2.66968	0.00178583	583.12119	17214.686	70.268	7183.43
590.0	0.90292	0.0970801	1.675	14.61422	-4.72784	32.08757	146.52624	0.14432	6.92888	18.33055	27.26168	6.80293	0.34725	1.64514	3315.05163	2.56078	0.00127082	587.8388	16673.625	54.1061	7395.924
580.0	0.92186	0.0781432	1.6778	14.58952	-4.88886	31.59546	148.12641	0.14111	7.08665	20.26553	27.55995	7.54308	0.34332	1.69658	4412.71188	2.45435	9.4364E-4	592.54966	16214.685	45.894	7528.623
579.19	0.92307	0.0769251	1.67801	14.58769	-4.90079	31.56232	148.22116	0.14089	7.09794	20.40019	27.58376	7.5947	0.34305	1.70087	4510.71212	2.44584	9.22261E-4	592.93175	16179.999	 	7536.932
560.0	0.94514	0.0548601	1.68247	14.54845	-5.1566	30.93045	149.44617	0.13659	7.32142	23.10586	28.13288	8.63485	0.33794	1.80797	7426.8185	2.24915	5.47529E-4	601.94643	15417.749	39.8468	7679.756
550.0	0.95243	0.0475705	1.68452	14.53042	-5.27415	30.69362	149.62493	0.13478	7.41923	24.17785	28.40871	9.04864	0.33599	1.86815	9525.85286	2.15057	4.21757E-4	606.63489	15055.076	36.2673	7722.718
540.0	0.95814	0.0418634	1.68647	14.51333	-5.38558	30.49141	149.61801	0.13315	7.51012	25.11404	28.67819	9.41084	0.33432	1.93162	12200.60305	2.05464	3.25294E-4	611.317	14706.046	34.903	7754.059
536.21	0.95997	0.0400339	1.68719	14.50706	-5.42647	30.42223	149.58245	0.13256	7.54348	25.43878	28.77864	9.53666	0.33374	1.95657	13400.0829	2.01899	2.94796E-4	613.08925	14576.699	 	7763.573
536.21	0.95997	0.0400339	1.68719	14.50706	-5.42647	30.42223	149.58245	0.13256	7.54348	25.43878	28.77864	9.53666	0.33374	1.95657	13400.0829	2.01899	2.94796E-4	613.08925	14576.699	 	7763.573
530.0	0.96271	0.0372855	1.68835	14.49693	-5.49251	30.31405	149.49057	0.13163	7.59716	25.94887	28.94148	9.73451	0.33283	1.99848	15638.17371	1.96147	2.50667E-4	615.99214	14366.867	33.9179	7777.528
520.0	0.9665	0.0335002	1.69017	14.48102	-5.59619	30.15381	149.26453	0.13019	7.68131	26.71074	29.19893	10.03048	0.33148	2.06919	20093.07229	1.87086	1.92662E-4	620.66222	14035.17	33.1697	7795.463
510.0	0.96965	0.0303535	1.69195	14.46554	-5.69711	30.00788	148.96836	0.1288	7.76395	27.41081	29.45068	10.30298	0.33024	2.14411	25902.74138	1.78272	1.47566E-4	625.32876	13709.694	32.5476	7809.019
500.0	0.97231	0.0276944	1.69369	14.4504	-5.79586	29.87268	148.62039	0.12745	7.846	28.06244	29.69682	10.5571	0.32908	2.22357	33532.85458	1.69707	1.12533E-4	629.9921	13389.22	32.0474	7819.465
490.0	0.97459	0.0254147	1.6954	14.43552	-5.89282	29.74592	148.23131	0.12614	7.92801	28.6751	29.93748	10.79648	0.32798	2.30793	43623.89887	1.61389	8.53831E-5	634.65257	13072.886	31.6334	7827.557
480.0	0.97656	0.0234366	1.69709	14.42088	-5.98826	29.62583	147.81128	0.12484	8.01051	29.25584	30.17273	11.02379	0.32694	2.3976	57064.19019	1.53317	6.44176E-5	639.31079	12760.064	31.2822	7833.952
471.3	0.97808	0.021916	1.69855	14.40832	-6.07015	29.52626	147.42636	0.12372	8.08299	29.73871	30.37302	11.2131	0.32607	2.48026	72429.91564	1.46496	5.01656E-5	643.3607	12490.49	 	7838.439
470.0	0.97831	0.0216938	1.69876	14.40645	-6.08236	29.51146	147.36833	0.12355	8.09397	29.81062	30.40275	11.24132	0.32594	2.49288	75096.79994	1.455	4.82994E-5	643.96895	12450.16	30.9904	7839.176
460.0	0.97992	0.0200798	1.70042	14.39217	-6.17541	29.40082	146.90252	0.12227	8.17844	30.35181	30.62803	11.45387	0.32496	2.59338	99498.41654	1.37979	3.59636E-5	648.63635	12142.079	30.8081	7844.251
450.0	0.98135	0.0186458	1.70206	14.37806	-6.2674	29.29414	146.41821	0.121	8.2642	30.87181	30.84803	11.65846	0.32401	2.70075	132736.3839	1.30687	2.65904E-5	653.30264	11836.634	30.5445	7848.344
440.0	0.98264	0.0173593	1.70368	14.3641	-6.35842	29.19087	145.91831	0.11974	8.35147	31.37367	31.06286	11.85626	0.32308	2.8156	178377.0227	1.23622	1.95132E-5	657.9686	11533.552	30.3082	7851.665
434.97	0.98323	0.0167652	1.70449	14.35713	-6.40385	29.14039	145.66472	0.1191	8.39619	31.6195	31.16899	11.95328	0.32263	2.87642	207572.7768	1.20155	1.66503E-5	660.31656	11381.898	 	7853.082
425.3	0.98431	0.0156915	1.70605	14.34383	-6.49059	29.04464	145.16302	0.11788	8.48307	32.083	31.36936	12.13644	0.32176	2.99946	279343.3244	1.13653	1.22035E-5	664.82772	11091.954	 	7855.477
420.0	0.99385	0.00615018	1.70729	14.33178	-6.56913	28.70106	145.12264	0.11702	8.54559	33.44494	31.49101	12.66939	0.31991	3.12077	341466.9521	1.08406	9.90753E-6	666.8532	10876.539	32.8506	7913.745
410.0	1.0	0.0	1.70891	14.31546	-6.67549	28.42738	144.78059	0.1156	8.65024	34.56912	31.70041	13.11174	0.31825	 	479533.47	 	6.95319E-6	 	10546.371	33.0168	7948.67
400.0	1.0	0.0	1.71049	14.30221	-6.76188	28.33553	144.27331	0.11431	8.74799	34.91757	31.89519	13.25105	0.31754	 	664102.9562	 	4.94724E-6	 	10225.624	32.0747	 
390.0	1.0	0.0	1.71207	14.28904	-6.84778	28.24368	143.76628	0.11301	8.84869	35.2624	32.08518	13.38913	0.31683	 	928788.6391	 	3.48483E-6	 	9936.102	28.9522	 
380.0	1.0	0.0	1.71364	14.27594	-6.93318	28.15183	143.25951	0.1117	8.9525	35.60361	32.27045	13.52599	0.31612	 	1312378.976	 	2.42907E-6	 	9647.705	28.8397	 
370.0	1.0	0.0	1.71521	14.26291	-7.01808	28.05998	142.75301	0.11038	9.05956	35.94119	32.45104	13.66161	0.31541	 	1874435.943	 	1.67467E-6	 	9360.421	28.7284	 
360.0	1.0	0.0	1.71677	14.24997	-7.10249	27.96814	142.24679	0.10905	9.17001	36.27515	32.62702	13.796	0.3147	 	2707522.89	 	1.14136E-6	 	9074.238	28.6183	 
350.0	1.0	0.0	1.71832	14.2371	-7.18639	27.8763	141.74088	0.10771	9.28403	36.60549	32.79843	13.92916	0.31399	 	3957302.883	 	7.68564E-7	 	8789.147	28.5091	 
340.0	1.0	0.0	1.71986	14.2243	-7.2698	27.78446	141.23528	0.10636	9.40179	36.93219	32.96534	14.06108	0.31328	 	5856024.049	 	5.11035E-7	 	8505.137	28.401	 
330.0	1.0	0.0	1.7214	14.21158	-7.35271	27.69262	140.73001	0.105	9.52347	37.25528	33.12778	14.19175	0.31257	 	8779104.805	 	3.35322E-7	 	8222.198	28.2939	 
320.0	1.0	0.0	1.72294	14.19894	-7.43512	27.60079	140.22509	0.10363	9.64928	37.57474	33.28582	14.32119	0.31186	 	1.334218283E7	 	2.16982E-7	 	7940.321	28.1877	 
310.0	1.0	0.0	1.72446	14.18638	-7.51703	27.50895	139.72054	0.10226	9.77944	37.89057	33.43949	14.44938	0.31115	 	2.057016823E7	 	1.38366E-7	 	7659.498	28.0823	 
300.0	1.0	0.0	1.72598	14.17389	-7.59845	27.41712	139.21638	0.10087	9.91416	38.20279	33.58886	14.57633	0.31044	 	3.219655601E7	 	8.68852E-8	 	7379.719	27.9779	 
290.0	1.0	0.0	1.72749	14.16148	-7.67936	27.32529	138.71263	0.0994659	10.0537	38.51137	33.73397	14.70203	0.30973	 	5.120249332E7	 	5.36809E-8	 	7100.978	27.8741	 
280.0	1.0	0.0	1.729	14.14914	-7.75978	27.23347	138.20932	0.0980554	10.19831	38.81634	33.87486	14.82648	0.30902	 	8.280521417E7	 	3.26041E-8	 	6823.267	27.7711	 
270.0	1.0	0.0	1.7305	14.13688	-7.8397	27.14164	137.70646	0.0966344	10.34829	39.11768	34.01159	14.94967	0.30831	 	1.36304914E8	 	1.94489E-8	 	6546.579	27.6688	 
260.0	1.0	0.0	1.73199	14.1247	-7.91913	27.04982	137.20409	0.0952025	10.50392	39.41539	34.1442	15.07162	0.3076	 	2.286046979E8	 	1.13828E-8	 	6270.91	27.5669	 
250.0	1.0	0.0	1.73348	14.11259	-7.99805	26.958	136.70224	0.0937598	10.66555	39.70948	34.27274	15.1923	0.30689	 	3.910607499E8	 	6.52933E-9	 	5996.255	27.4655	 
240.0	1.0	0.0	1.73496	14.10056	-8.07648	26.86618	136.20094	0.0923061	10.83352	39.99995	34.39725	15.31173	0.30619	 	6.831100453E8	 	3.6664E-9	 	5722.608	27.3647	 
230.0	1.0	0.0	1.73643	14.08861	-8.15441	26.77437	135.70021	0.0908412	11.00822	40.2868	34.51778	15.4299	0.30548	 	1.220018198E9	 	2.01288E-9	 	5449.969	27.2639	 
220.0	1.0	0.0	1.73789	14.07673	-8.23184	26.68256	135.20011	0.0893651	11.19005	40.57002	34.63436	15.54681	0.30477	 	2.230780894E9	 	1.07897E-9	 	5178.333	27.1636	 
210.0	1.0	0.0	1.73935	14.06493	-8.30877	26.59074	134.70066	0.0878776	11.37946	40.84961	34.74705	15.66245	0.30406	 	4.18212267E9	 	5.63861E-10	 	4907.702	27.0631	 
200.0	1.0	0.0	1.7408	14.0532	-8.38521	26.49894	134.20192	0.0863786	11.57694	41.12559	34.85589	15.77683	0.30335	 	8.051443637E9	 	2.86822E-10	 	4638.074	26.9628	 
190.0	1.0	0.0	1.74225	14.04155	-8.46115	26.40713	133.70393	0.0848679	11.78301	41.39794	34.96091	15.88993	0.30265	 	1.5945399999999998E10	 	1.41766E-10	 	4369.453	26.8621	 
180.0	1.0	0.0	1.74368	14.02998	-8.53659	26.31532	133.20674	0.0833454	11.99826	41.66666	35.06216	16.00177	0.30194	 	3.2545799999999996E10	 	6.7957E-11	 	4101.842	26.7611	 
170.0	1.0	0.0	1.74511	14.01849	-8.61153	26.22352	132.71041	0.081811	12.22329	41.93176	35.15968	16.11234	0.30123	 	6.860219999999999E10	 	3.15282E-11	 	3835.246	26.6596	 
160.0	1.0	0.0	1.74654	14.00707	-8.68597	26.13172	132.215	0.0802645	12.4588	42.19324	35.2535	16.22162	0.30052	 	1.4967E11	 	1.41251E-11	 	3569.673	26.5573	 
150.0	1.0	0.0	1.74795	13.99572	-8.75992	26.03993	131.72058	0.0787058	12.70554	42.4511	35.34368	16.32964	0.29982	 	3.388E11	 	6.09589E-12	 	3305.132	26.4541	 
140.0	1.0	0.0	1.74936	13.98446	-8.83337	25.94813	131.22723	0.0771347	12.96433	42.70533	35.43024	16.43637	0.29911	 	7.97865E11	 	2.52735E-12	 	3041.634	26.3498	 
130.0	1.0	0.0	1.75076	13.97327	-8.90632	25.85634	130.73501	0.0755511	13.23607	42.95594	35.51323	16.54182	0.2984	 	1.96051E12	 	1.00366E-12	 	2779.195	26.2439	 
120.0	1.0	0.0	1.75216	13.96215	-8.97877	25.76455	130.24404	0.0739548	13.52177	43.20292	35.59268	16.64599	0.2977	 	5.04278E12	 	3.80518E-13	 	2517.832	26.1363	 
110.0	1.0	0.0	1.75354	13.95112	-9.05073	25.67276	129.7544	0.0723457	13.82252	43.44628	35.66863	16.74887	0.29699	 	1.36266E13	 	1.37236E-13	 	2257.566	26.0266	 
100.0	1.0	0.0	1.75492	13.94015	-9.12219	25.58097	129.2662	0.0707236	14.13955	43.68602	35.74111	16.85047	0.29628	 	3.88371E13	 	4.68947E-14	 	1998.423	25.9143	 
90.0	1.0	0.0	1.75629	13.92927	-9.19315	25.48918	128.77958	0.0690884	14.47421	43.92214	35.81017	16.95078	0.29558	 	1.17261E14	 	1.51153E-14	 	1740.431	25.7992	 
80.0	1.0	0.0	1.75766	13.91846	-9.26361	25.3974	128.29466	0.0674399	14.82802	44.15463	35.87584	17.04979	0.29487	 	3.76914E14	 	4.57302E-15	 	1483.626	25.6805	 
70.0	1.0	0.0	1.75901	13.90773	-9.33358	25.30562	127.81161	0.0657779	15.20268	44.3835	35.93815	17.14751	0.29417	 	1.29683E15	 	1.29148E-15	 	1228.047	25.5579	 
60.0	1.0	0.0	1.76036	13.89707	-9.40304	25.21384	127.33058	0.0641022	15.60008	44.60874	35.99714	17.24394	0.29346	 	4.80555E15	 	3.38364E-16	 	973.743	25.4304	 
50.0	1.0	0.0	1.7617	13.88649	-9.47201	25.12207	126.85178	0.0624128	16.02235	44.83037	36.05284	17.33906	0.29276	 	1.93112E16	 	8.16738E-17	 	720.768	25.2975	 
40.0	1.0	0.0	1.76304	13.87599	-9.54048	25.03029	126.37543	0.0607094	16.47192	45.04837	36.10529	17.43289	0.29205	 	8.48113E16	 	1.80213E-17	 	469.187	25.1581	 
30.0	1.0	0.0	1.76436	13.86556	-9.60846	24.93852	125.90177	0.0589918	16.9515	45.26274	36.15451	17.52541	0.29135	 	4.10674E17	 	3.60286E-18	 	219.076	25.0111	 
25.0	1.0	0.0	1.76502	13.86038	-9.64226	 	125.66604	0.0581277	17.20351	45.36857	36.17793	17.57119	0.29099	 	9.40266E17	 	1.54764E-18	 	94.597	 	 
