T (C)	Fraction solid (wt)-TOTAL	Fraction liquid (wt)-LIQUID	Density (g/(cm)^3)-TOTAL	Molar volume (cm^3)-TOTAL	Volume change (%)-  	Average expansion coeff. (10e-6 1/K)-  	Thermal conductivity (W/(m*K))-TOTAL	Electrical resistivity (10e-6 Ohm*m)-TOTAL	Electrical conductivity (10e6 1/(Ohm*m))-TOTAL	Young's modulus (GPa)-TOTAL	Bulk modulus (GPa)-TOTAL	Shear modulus(GPa)-TOTAL	Poisson's ratio-TOTAL	Liquid viscosity (mPa s)-  	Total viscosity (mPa s)-  	Liquid diffusivity (10e-9 (m^2)/s)-  	Total diffusivity (10e-9 (m^2)/s)-  	Surface Tension (mN/m)-  	Enthalpy (J/mole)-TOTAL	Specific heat (J/(mole K))-TOTAL	Latent heat (J/mole)-TOTAL
700.0	0.0	1.0	1.60452	15.2819	0.0	52.06279	80.61221	0.29576	3.38108	0.0	24.95581	0.0	0.5	1.24827	1.24827	3.80504	3.80504	544.81782	27609.71	 	0.0
695.0	0.0	1.0	1.60579	15.26976	-0.0794752	52.01423	80.26978	0.2955	3.3841	0.0	25.0239	0.0	0.5	1.26298	1.26298	3.74139	3.74139	546.56105	27438.79	34.184	0.0
690.0	0.0	1.0	1.60707	15.25766	-0.15863	51.96671	79.92735	0.29523	3.38716	0.0	25.09198	0.0	0.5	1.27802	1.27802	3.67827	3.67827	548.30438	27267.87	34.184	0.0
685.0	0.0	1.0	1.60834	15.24561	-0.23747	51.92026	79.58493	0.29496	3.39025	0.0	25.16006	0.0	0.5	1.2934	1.2934	3.61566	3.61566	550.04779	27096.951	34.1838	0.0
680.0	0.0	1.0	1.6096	15.23362	-0.31598	51.8749	79.2425	0.29469	3.39337	0.0	25.22815	0.0	0.5	1.30913	1.30913	3.55358	3.55358	551.79128	26926.033	34.1836	0.0
675.0	0.0	1.0	1.61087	15.22167	-0.39418	51.83066	78.90007	0.29442	3.39652	0.0	25.29623	0.0	0.5	1.32522	1.32522	3.49202	3.49202	553.53484	26755.115	34.1836	0.0
670.0	0.0	1.0	1.61213	15.20976	-0.47206	51.78755	78.55765	0.29414	3.39971	0.0	25.36431	0.0	0.5	1.34168	1.34168	3.43099	3.43099	555.27848	26584.198	34.1834	0.0
665.0	0.0	1.0	1.61339	15.19791	-0.54961	51.74561	78.21522	0.29386	3.40293	0.0	25.43239	0.0	0.5	1.35852	1.35852	3.37049	3.37049	557.02218	26413.282	34.1832	0.0
660.75	0.0	1.0	1.61445	15.18788	-0.61527	51.7109	77.9242	0.29363	3.40569	0.0	25.49025	0.0	0.5	1.37314	1.37314	3.31949	3.31949	558.50411	26268.03	34.1828	0.0
660.0	0.0	1.0	1.61464	15.18611	-0.62687	51.70477	77.87278	0.29358	3.40618	0.0	25.50043	0.0	0.5	1.37576	1.37576	3.31052	3.31052	558.76481	26242.319	34.248	0.043
655.0	1.0E-5	0.99999	1.61589	15.17426	-0.70442	51.66154	77.53009	0.2933	3.40946	3.33851E-20	25.56833	1.11284E-20	0.5	1.39339	1.39339	3.25112	3.25112	560.5013	26071.107	34.2424	0.344
650.0	2.0E-5	0.99998	1.61714	15.16263	-0.7805	51.62627	77.18825	0.29301	3.41282	3.36302E-19	25.6365	1.12101E-19	0.5	1.41145	1.41145	3.19224	3.19224	562.23809	25899.934	34.2346	0.617
645.0	2.0E-5	0.99998	1.61838	15.15091	-0.85718	51.58693	76.84567	0.29273	3.41617	1.28017E-18	25.70447	4.26725E-19	0.5	1.42994	1.42994	3.13389	3.13389	563.97275	25729.117	34.1634	0.862
640.0	3.0E-5	0.99997	1.61962	15.13939	-0.93257	51.55458	76.50383	0.29243	3.4196	3.19389E-18	25.77263	1.06463E-18	0.5	1.44888	1.44888	3.07608	3.07608	565.71028	25559.005	34.0224	1.083
635.0	3.0E-5	0.99997	1.62086	15.12778	-1.00856	51.51816	76.16127	0.29214	3.42303	6.28618E-18	25.84061	2.0954E-18	0.5	1.46828	1.46828	3.0188	3.0188	567.4481	25389.588	33.8834	1.281
631.49	4.0E-5	0.99996	1.62173	15.11966	-1.06167	51.49365	75.92081	0.29193	3.42546	9.20697E-18	25.88835	3.069E-18	0.49999	1.48219	1.48219	2.97891	2.97891	568.6682	25271.065	 	1.409
630.0	1.8E-4	0.99982	1.62211	15.1161	-1.08493	51.47878	75.82104	0.29183	3.4266	1.07634E-15	25.9081	3.58784E-16	0.49998	1.48798	1.48798	2.96245	2.96245	569.17795	25217.477	34.4222	4.836
627.89	3.8E-4	0.99962	1.62265	15.11118	-1.11716	51.4624	75.68	0.29169	3.42826	3.53136E-14	25.9363	1.17715E-14	0.49996	1.49626	1.49626	2.93915	2.93915	569.90155	25141.595	 	9.627
627.04	0.04604	0.95396	1.62555	15.08419	-1.29376	50.45364	77.83304	0.28336	3.52909	1.01627E-4	25.96951	3.40454E-5	0.49253	1.50044	1.60546	2.92822	2.73668	570.28357	24728.88	 	394.01
625.0	0.23899	0.76101	1.63711	14.9776	-1.9913	46.34157	87.48915	0.25151	3.97593	0.0723834	26.21679	0.0247734	0.46091	1.50753	10.3201	2.90783	0.42477	571.20805	22915.905	460.314	2138.502
620.0	0.51259	0.48741	1.65411	14.82365	-2.99867	40.49247	105.38974	0.20763	4.81624	1.68645	26.63901	0.59583	0.4152	1.5264	195.04654	2.85591	0.0223498	573.50442	20298.822	523.417	4588.322
615.0	0.64976	0.35024	1.66315	14.74298	-3.52656	37.53874	116.97155	0.18603	5.37561	4.58015	26.93147	1.64543	0.39178	1.54657	548.65578	2.80287	0.00790084	575.83623	18923.045	275.155	5797.468
610.0	0.731	0.269	1.66887	14.69236	-3.85778	35.77332	125.00029	0.1731	5.77711	7.5626	27.16791	2.74471	0.37767	1.56768	964.61557	2.74957	0.00446855	578.18763	18052.296	174.15	6502.208
605.84	0.77637	0.22363	1.67229	14.66223	-4.05493	34.77911	129.72202	0.16601	6.02373	9.79406	27.34149	3.57535	0.36966	1.58583	1328.61651	2.70527	0.00322901	580.15427	17526.705	 	6890.007
605.84	0.77637	0.22363	1.67229	14.66223	-4.05493	34.7791	129.72202	0.16601	6.02373	9.79406	27.34149	3.57535	0.36966	1.58583	1328.61651	2.70527	0.00322901	580.15427	17526.704	 	6890.008
605.0	0.78375	0.21625	1.67287	14.65709	-4.08857	34.61553	130.50526	0.16486	6.06587	10.20293	27.37443	3.72819	0.36835	1.58953	1402.21755	2.69641	0.00305661	580.54946	17436.48	123.163	6952.629
600.0	0.82095	0.17905	1.67593	14.63017	-4.26477	33.7874	134.41071	0.15916	6.28317	12.48046	27.56358	4.58282	0.36166	1.61209	1859.80532	2.64354	0.00229144	582.91576	16959.41	95.414	7264.908
595.0	0.84822	0.15178	1.67839	14.60859	-4.40594	33.17115	137.22872	0.15499	6.45185	14.41241	27.74096	5.31176	0.35665	1.6353	2338.37562	2.5911	0.00181204	585.28457	16570.18	77.846	7489.941
590.0	0.86895	0.13105	1.68045	14.59053	-4.5241	32.69411	139.29968	0.15181	6.58715	16.0573	27.91002	5.93502	0.35276	1.65916	2845.10226	2.53912	0.00148073	587.65398	16238.537	66.3286	7657.972
585.0	0.88518	0.11482	1.68223	14.57488	-4.62652	32.31212	140.8435	0.14928	6.69896	17.47049	28.0728	6.4723	0.34964	1.68367	3388.59027	2.48767	0.00123604	590.02293	15946.518	58.4038	7786.956
580.0	0.89818	0.10182	1.68381	14.56098	-4.7175	31.99919	142.00307	0.1472	6.7937	18.69595	28.23065	6.93952	0.34706	1.70884	3977.74882	2.43675	0.00104683	592.39074	15682.832	52.7372	7888.176
575.0	0.90878	0.0912183	1.68525	14.54837	-4.80001	31.73726	142.87949	0.14543	6.87593	19.77096	28.38448	7.35035	0.3449	1.73467	4622.69478	2.38639	8.95497E-4	594.75702	15440.052	48.556	7969.048
574.88	0.90902	0.0909844	1.68528	14.54807	-4.80198	31.73122	142.89838	0.14539	6.87784	19.79562	28.38818	7.35979	0.34485	1.73532	4639.37218	2.38515	8.92148E-4	594.81551	15434.289	 	7970.816
565.0	0.92518	0.0748198	1.68783	14.52576	-4.94796	31.31549	144.02542	0.14258	7.01377	21.59224	28.68243	8.04842	0.3414	1.78847	6127.82484	2.28732	6.67578E-4	599.48363	14997.215	44.2837	8089.71
560.0	0.93147	0.0685284	1.689	14.51549	-5.01514	31.14544	144.38876	0.14137	7.07366	22.35959	28.82712	8.34331	0.33997	1.81644	7007.92616	2.23866	5.80257E-4	601.84442	14792.354	40.9722	8134.286
555.0	0.93689	0.0631148	1.69012	14.50571	-5.07918	30.99403	144.64928	0.14027	7.12921	23.05787	28.9694	8.61207	0.3387	1.84518	7993.49218	2.19057	5.05661E-4	604.20334	14595.264	39.418	8171.614
550.0	0.94159	0.0584137	1.69119	14.49631	-5.14065	30.85774	144.82688	0.13925	7.18132	23.69801	29.10944	8.85879	0.33754	1.8747	9100.9807	2.14306	4.41446E-4	606.56042	14404.513	38.1502	8203.116
545.0	0.9457	0.0542962	1.69223	14.48724	-5.20005	30.73355	144.93733	0.1383	7.23071	24.28913	29.24736	9.08692	0.33649	1.90505	10349.32915	2.09611	3.8584E-4	608.91576	14219.004	37.1018	8229.88
540.0	0.94934	0.050663	1.69324	14.47844	-5.25763	30.62	144.99267	0.1374	7.27795	24.83821	29.38333	9.29909	0.33552	1.93624	11760.13387	2.04974	3.37478E-4	611.26931	14037.883	36.2242	8252.749
535.0	0.95256	0.0474364	1.69422	14.46987	-5.31371	30.51501	145.00158	0.13655	7.32343	25.35142	29.51745	9.49763	0.33462	1.96832	13358.40453	2.00394	2.95273E-4	613.62121	13860.476	35.4814	8272.386
534.97	0.95258	0.0474169	1.69423	14.46982	-5.31402	30.5147	145.00188	0.13654	7.32374	25.35455	29.51835	9.49884	0.33461	1.96853	13369.44333	2.00364	2.95018E-4	613.63643	13859.336	 	8272.503
534.97	0.95258	0.0474169	1.69423	14.46982	-5.31402	30.5147	145.00188	0.13654	7.32374	25.35455	29.51835	9.49884	0.33461	1.96853	13369.44333	2.00364	2.95018E-4	613.63643	13859.336	 	8272.503
530.0	0.95548	0.0445159	1.69518	14.46147	-5.36863	30.4164	144.97594	0.13573	7.36772	25.83744	29.64976	9.68587	0.33377	2.00118	15175.26694	1.95884	2.58313E-4	615.97013	13685.843	34.9266	8289.748
525.0	0.9581	0.0418995	1.69612	14.45326	-5.42242	30.32418	144.91639	0.13494	7.41083	26.29531	29.78032	9.8634	0.33297	2.03502	17241.74298	1.91427	2.25938E-4	618.31801	13514.08	34.3526	8304.716
520.0	0.96046	0.0395421	1.69705	14.44519	-5.47519	30.23764	144.8293	0.13417	7.45307	26.72865	29.90923	10.0316	0.33222	2.06989	19596.86844	1.87023	1.9754E-4	620.66479	13344.799	33.8562	8317.671
515.0	0.96259	0.0374068	1.69796	14.43726	-5.5271	30.15587	144.71782	0.13343	7.49458	27.14065	30.03654	10.19169	0.33151	2.10581	22286.13814	1.82674	1.72608E-4	623.01046	13177.68	33.4238	8328.939
510.0	0.96454	0.0354639	1.69886	14.42944	-5.57828	30.0779	144.58663	0.1327	7.53559	27.53383	30.16223	10.34463	0.33083	2.14282	25362.61771	1.7838	1.50708E-4	625.35516	13012.463	33.0434	8338.726
505.0	0.96631	0.0336877	1.69975	14.42172	-5.62875	30.00377	144.43736	0.13199	7.57618	27.91043	30.28641	10.49126	0.33017	2.18096	28888.51809	1.74141	1.31469E-4	627.69876	12848.933	32.706	8347.311
500.0	0.96794	0.0320566	1.70063	14.4141	-5.67865	29.93253	144.27227	0.13129	7.61646	28.2723	30.40906	10.6323	0.32955	2.22029	32936.68198	1.69958	1.1457E-4	630.04144	12686.909	32.4048	8354.842
495.0	0.96944	0.0305551	1.7015	14.40656	-5.72796	29.86431	144.09398	0.13061	7.65656	28.62101	30.53023	10.76835	0.32894	2.26083	37592.88026	1.65831	9.97303E-5	632.38315	12526.24	32.1338	8361.479
490.0	0.97083	0.0291659	1.70236	14.3991	-5.77678	29.7986	143.90602	0.12993	7.69667	28.9579	30.64993	10.8999	0.32836	2.30265	42957.89887	1.61759	8.67069E-5	634.72403	12366.799	31.8882	8367.323
485.0	0.97212	0.0278776	1.70322	14.39171	-5.82517	29.73487	143.70617	0.12925	7.73667	29.28413	30.76821	11.02742	0.32779	2.34578	49150.63441	1.57744	7.52857E-5	637.06421	12208.476	31.6646	8372.466
480.0	0.97332	0.0266789	1.70406	14.38438	-5.87312	29.6733	143.49692	0.12859	7.77669	29.60067	30.88505	11.15127	0.32723	2.3903	56311.78134	1.53786	6.52783E-5	639.40365	12051.178	31.4596	8377.049
475.0	0.97444	0.0255595	1.70491	14.37711	-5.9207	29.61343	143.27896	0.12793	7.81678	29.90844	31.0005	11.2718	0.32669	2.43625	64607.86841	1.49883	5.65184E-5	641.74253	11894.824	31.2708	8381.121
470.0	0.97549	0.0245122	1.70574	14.36989	-5.96792	29.55515	143.05394	0.12727	7.85701	30.20833	31.11456	11.38935	0.32617	2.4837	74236.90141	1.46038	4.88589E-5	644.08093	11739.343	31.0962	8384.746
465.0	0.97647	0.0235298	1.70658	14.36272	-6.01484	29.49811	142.82215	0.12662	7.89741	30.50093	31.22726	11.50416	0.32565	2.53271	85433.78445	1.42248	4.21698E-5	646.41903	11584.676	30.9334	8387.983
460.0	0.97739	0.0226051	1.7074	14.3556	-6.06144	29.44243	142.58372	0.12598	7.938	30.78693	31.33863	11.61647	0.32514	2.58334	98479.11603	1.38515	3.63359E-5	648.75677	11430.768	30.7816	8390.87
455.0	0.97827	0.021733	1.70823	14.34853	-6.10773	29.38812	142.34114	0.12533	7.97891	31.06662	31.44863	11.72641	0.32464	2.63568	113707.0883	1.34839	3.1255E-5	651.09436	11277.571	30.6394	8393.444
450.0	0.97909	0.0209083	1.70905	14.34149	-6.15377	29.33468	142.09162	0.12469	8.01999	31.34075	31.55733	11.83425	0.32415	2.68979	131518.8852	1.31219	2.68366E-5	653.43188	11125.046	30.505	8395.76
445.0	0.97987	0.0201279	1.70986	14.3345	-6.19952	29.2825	141.8386	0.12405	8.06145	31.60963	31.66472	11.94013	0.32367	2.74576	152395.0822	1.27656	2.30002E-5	655.76937	10973.154	30.3784	8397.839
440.0	0.98061	0.0193867	1.71067	14.32755	-6.24502	29.23134	141.58186	0.12341	8.10328	31.87368	31.77079	12.0442	0.3232	2.80366	176913.743	1.24149	1.96746E-5	658.10705	10821.862	30.2584	8399.707
436.49	0.98111	0.0188901	1.71124	14.32269	-6.27679	29.19583	141.39953	0.12296	8.13281	32.05594	31.84441	12.11609	0.32287	2.84546	196640.8558	1.21724	1.76138E-5	659.74608	10716.148	 	8400.899
436.49	0.98111	0.0188901	1.71124	14.32269	-6.27679	29.19583	141.39953	0.12296	8.13281	32.05594	31.84441	12.11609	0.32287	2.84546	196640.8558	1.21724	1.76138E-5	659.74608	10716.148	 	8400.899
426.73	0.98242	0.0175758	1.71281	14.30925	-6.36473	29.09858	140.87345	0.12172	8.21555	32.55452	32.04611	12.31296	0.32196	2.96741	265322.4991	1.15116	1.28748E-5	664.31059	10423.291	 	8403.666
425.0	0.98779	0.0122083	1.71333	14.30413	-6.39824	28.91608	140.90128	0.12139	8.23759	33.28778	32.08981	12.59941	0.32101	3.00638	285717.0622	1.13342	1.19261E-5	664.94077	10338.772	32.206	8436.796
420.0	0.99626	0.00374399	1.71441	14.29314	-6.47019	28.61093	140.836	0.12058	8.29317	34.54314	32.20463	13.09108	0.31934	3.12091	344576.4963	1.08401	9.81812E-6	666.85422	10139.955	39.7634	8487.7
415.0	1.0	0.0	1.7152	14.28467	-6.52558	28.45439	140.66899	0.11985	8.34352	35.20522	32.31107	13.35145	0.3184	 	408932.8026	 	8.2133E-6	 	9971.15	33.761	8508.955
410.0	1.0	0.0	1.71599	14.27804	-6.569	28.40839	140.40662	0.11921	8.38891	35.38096	32.40953	13.42168	0.31805	 	479533.47	 	6.95319E-6	 	9778.143	38.6014	 
405.0	1.0	0.0	1.71679	14.27142	-6.61229	28.36238	140.14424	0.11855	8.43497	35.55577	32.50676	13.4916	0.3177	 	563645.2317	 	5.87228E-6	 	9633.26	28.9766	 
400.0	1.0	0.0	1.71758	14.26482	-6.65546	28.31637	139.88185	0.1179	8.48171	35.72966	32.60279	13.5612	0.31735	 	664102.9562	 	4.94724E-6	 	9488.656	28.9208	 
395.0	1.0	0.0	1.71838	14.25825	-6.6985	28.27037	139.61945	0.11724	8.52915	35.90263	32.69762	13.63049	0.317	 	784388.2173	 	4.15747E-6	 	9344.331	28.865	 
390.0	1.0	0.0	1.71917	14.25169	-6.74142	28.22436	139.35704	0.11659	8.57731	36.07468	32.79125	13.69947	0.31664	 	928788.6391	 	3.48483E-6	 	9200.282	28.8098	 
385.0	1.0	0.0	1.71996	14.24515	-6.78421	28.17836	139.09462	0.11593	8.6262	36.24581	32.88369	13.76814	0.31629	 	1102599.42	 	2.91336E-6	 	9056.509	28.7546	 
380.0	1.0	0.0	1.72074	14.23863	-6.82688	28.13235	138.8322	0.11526	8.67583	36.41602	32.97495	13.83649	0.31594	 	1312378.976	 	2.42907E-6	 	8913.01	28.6998	 
375.0	1.0	0.0	1.72153	14.23212	-6.86942	28.08635	138.56977	0.1146	8.72623	36.5853	33.06505	13.90453	0.31559	 	1566274.243	 	2.01974E-6	 	8769.783	28.6454	 
370.0	1.0	0.0	1.72231	14.22564	-6.91184	28.04035	138.30734	0.11393	8.77742	36.75367	33.15397	13.97226	0.31524	 	1874435.943	 	1.67467E-6	 	8626.829	28.5908	 
365.0	1.0	0.0	1.7231	14.21918	-6.95414	27.99435	138.0449	0.11326	8.82941	36.92112	33.24174	14.03967	0.31489	 	2249550.399	 	1.38457E-6	 	8484.144	28.537	 
360.0	1.0	0.0	1.72388	14.21274	-6.9963	27.94835	137.78246	0.11258	8.88221	37.08765	33.32835	14.10677	0.31453	 	2707522.89	 	1.14136E-6	 	8341.729	28.483	 
355.0	1.0	0.0	1.72466	14.20631	-7.03835	27.90235	137.52001	0.11191	8.93586	37.25326	33.41382	14.17355	0.31418	 	3268358.684	 	9.38038E-7	 	8199.582	28.4294	 
350.0	1.0	0.0	1.72544	14.1999	-7.08027	27.85635	137.25757	0.11123	8.99037	37.41795	33.49815	14.24002	0.31383	 	3957302.883	 	7.68564E-7	 	8057.701	28.3762	 
345.0	1.0	0.0	1.72621	14.19352	-7.12206	27.81036	136.99512	0.11055	9.04576	37.58172	33.58135	14.30617	0.31348	 	4806320.338	 	6.27723E-7	 	7916.086	28.323	 
340.0	1.0	0.0	1.72699	14.18715	-7.16373	27.76436	136.73267	0.10987	9.10206	37.74458	33.66342	14.37201	0.31313	 	5856024.049	 	5.11035E-7	 	7774.735	28.2702	 
335.0	1.0	0.0	1.72776	14.1808	-7.20527	27.71836	136.47022	0.10918	9.15928	37.90652	33.74438	14.43754	0.31278	 	7158197.295	 	4.14662E-7	 	7633.648	28.2174	 
330.0	1.0	0.0	1.72853	14.17447	-7.24669	27.67237	136.20778	0.10849	9.21744	38.06754	33.82422	14.50275	0.31242	 	8779104.805	 	3.35322E-7	 	7492.823	28.165	 
325.0	1.0	0.0	1.7293	14.16816	-7.28799	27.62638	135.94534	0.1078	9.27659	38.22764	33.90296	14.56765	0.31207	 	1.080385671E7	 	2.7022E-7	 	7352.259	28.1128	 
320.0	1.0	0.0	1.73007	14.16187	-7.32916	27.58038	135.6829	0.1071	9.33672	38.38683	33.9806	14.63223	0.31172	 	1.334218283E7	 	2.16982E-7	 	7211.956	28.0606	 
315.0	1.0	0.0	1.73084	14.1556	-7.3702	27.53439	135.42048	0.10641	9.39789	38.54509	34.05715	14.69649	0.31137	 	1.653610431E7	 	1.73597E-7	 	7071.912	28.0088	 
310.0	1.0	0.0	1.7316	14.14934	-7.41112	27.4884	135.15805	0.10571	9.4601	38.70245	34.13261	14.76044	0.31102	 	2.057016823E7	 	1.38366E-7	 	6932.127	27.957	 
305.0	1.0	0.0	1.73237	14.14311	-7.45192	27.44241	134.89564	0.105	9.52338	38.85888	34.20699	14.82408	0.31067	 	2.568516009E7	 	1.09861E-7	 	6792.598	27.9058	 
300.0	1.0	0.0	1.73313	14.13689	-7.49259	27.39642	134.63324	0.1043	9.58778	39.01441	34.2803	14.8874	0.31032	 	3.219655601E7	 	8.68852E-8	 	6653.327	27.8542	 
295.0	1.0	0.0	1.73389	14.1307	-7.53313	27.35043	134.37085	0.10359	9.6533	39.16901	34.35255	14.9504	0.30997	 	4.051946431E7	 	6.84362E-8	 	6514.311	27.8032	 
290.0	1.0	0.0	1.73464	14.12452	-7.57355	27.30444	134.10848	0.10288	9.72	39.3227	34.42373	15.01308	0.30961	 	5.120249332E7	 	5.36809E-8	 	6375.551	27.752	 
285.0	1.0	0.0	1.7354	14.11836	-7.61385	27.25846	133.84612	0.10217	9.78788	39.47548	34.49385	15.07545	0.30926	 	6.497395666E7	 	4.19274E-8	 	6237.045	27.7012	 
280.0	1.0	0.0	1.73616	14.11222	-7.65402	27.21247	133.58378	0.10145	9.857	39.62733	34.56293	15.13751	0.30891	 	8.280521417E7	 	3.26041E-8	 	6098.792	27.6506	 
275.0	1.0	0.0	1.73691	14.1061	-7.69406	27.16649	133.32146	0.10073	9.92738	39.77828	34.63097	15.19924	0.30856	 	1.059979332E8	 	2.524E-8	 	5960.793	27.5998	 
270.0	1.0	0.0	1.73766	14.1	-7.73399	27.1205	133.05916	0.10001	9.99905	39.92831	34.69796	15.26066	0.30821	 	1.36304914E8	 	1.94489E-8	 	5823.046	27.5494	 
265.0	1.0	0.0	1.73841	14.09392	-7.77378	27.07452	132.79688	0.0992845	10.07206	40.07743	34.76393	15.32177	0.30786	 	1.760982601E8	 	1.49154E-8	 	5685.55	27.4992	 
260.0	1.0	0.0	1.73916	14.08786	-7.81345	27.02854	132.53464	0.0985567	10.14644	40.22563	34.82887	15.38255	0.30751	 	2.286046979E8	 	1.13828E-8	 	5548.307	27.4486	 
255.0	1.0	0.0	1.73991	14.08182	-7.853	26.98255	132.27241	0.097826	10.22224	40.37292	34.8928	15.44302	0.30716	 	2.982366624E8	 	8.64337E-9	 	5411.314	27.3986	 
250.0	1.0	0.0	1.74065	14.07579	-7.89242	26.93657	132.01023	0.0970923	10.29948	40.51929	34.95571	15.50317	0.30681	 	3.910607499E8	 	6.52933E-9	 	5274.572	27.3484	 
245.0	1.0	0.0	1.74139	14.06979	-7.93172	26.89059	131.74807	0.0963557	10.37822	40.66475	35.01761	15.56301	0.30646	 	5.154643633E8	 	4.90618E-9	 	5138.08	27.2984	 
240.0	1.0	0.0	1.74213	14.0638	-7.97089	26.84461	131.48595	0.0956161	10.45849	40.8093	35.07851	15.62252	0.3061	 	6.831100453E8	 	3.6664E-9	 	5001.838	27.2484	 
235.0	1.0	0.0	1.74287	14.05783	-8.00994	26.79864	131.22387	0.0948736	10.54035	40.95294	35.13841	15.68172	0.30575	 	9.103099939E8	 	2.72452E-9	 	4865.845	27.1986	 
230.0	1.0	0.0	1.74361	14.05188	-8.04886	26.75266	130.96183	0.094128	10.62383	41.09566	35.19732	15.7406	0.3054	 	1.220018198E9	 	2.01288E-9	 	4730.103	27.1484	 
225.0	1.0	0.0	1.74435	14.04596	-8.08766	26.70668	130.69984	0.0933794	10.709	41.23747	35.25525	15.79916	0.30505	 	1.644736357E9	 	1.47826E-9	 	4594.61	27.0986	 
220.0	1.0	0.0	1.74508	14.04005	-8.12633	26.66071	130.4379	0.0926278	10.7959	41.37837	35.3122	15.8574	0.3047	 	2.230780894E9	 	1.07897E-9	 	4459.367	27.0486	 
215.0	1.0	0.0	1.74581	14.03416	-8.16488	26.61473	130.17601	0.0918731	10.88458	41.51835	35.36817	15.91532	0.30435	 	3.044591384E9	 	7.82548E-10	 	4324.374	26.9986	 
210.0	1.0	0.0	1.74654	14.02828	-8.2033	26.56876	129.91417	0.0911153	10.9751	41.65743	35.42318	15.97293	0.304	 	4.18212267E9	 	5.63861E-10	 	4189.631	26.9486	 
205.0	1.0	0.0	1.74727	14.02243	-8.2416	26.52278	129.65239	0.0903545	11.06752	41.79559	35.47722	16.03021	0.30365	 	5.782929244E9	 	4.03555E-10	 	4055.138	26.8986	 
200.0	1.0	0.0	1.748	14.0166	-8.27977	26.47681	129.39068	0.0895905	11.1619	41.93284	35.5303	16.08718	0.3033	 	8.051443637E9	 	2.86822E-10	 	3920.896	26.8484	 
195.0	1.0	0.0	1.74873	14.01078	-8.31782	26.43084	129.12904	0.0888234	11.2583	42.06918	35.58243	16.14382	0.30295	 	1.12894E10	 	2.02396E-10	 	3786.906	26.798	 
