T (C)	Fraction solid (wt)-TOTAL	Fraction liquid (wt)-LIQUID	Density (g/(cm)^3)-TOTAL	Molar volume (cm^3)-TOTAL	Volume change (%)-  	Average expansion coeff. (10e-6 1/K)-  	Thermal conductivity (W/(m*K))-TOTAL	Electrical resistivity (10e-6 Ohm*m)-TOTAL	Electrical conductivity (10e6 1/(Ohm*m))-TOTAL	Young's modulus (GPa)-TOTAL	Bulk modulus (GPa)-TOTAL	Shear modulus(GPa)-TOTAL	Poisson's ratio-TOTAL	Liquid viscosity (mPa s)-  	Total viscosity (mPa s)-  	Liquid diffusivity (10e-9 (m^2)/s)-  	Total diffusivity (10e-9 (m^2)/s)-  	Surface Tension (mN/m)-  	Enthalpy (J/mole)-TOTAL	Specific heat (J/(mole K))-TOTAL	Latent heat (J/mole)-TOTAL
1500.0	0.0	1.0	6.94383	7.86031	0.0	26.75875	31.35	1.843	0.54259	0.0	105.72692	0.0	0.49974	6.69271	6.69271	1.29309	1.29309	1763.33202	64740.323	 	0.0
1495.0	0.0	1.0	6.94771	7.85591	-0.0558986	26.708	31.27553	1.84218	0.54284	0.0	105.91301	0.0	0.49974	6.75107	6.75107	1.2783	1.2783	1765.11206	64518.679	44.3288	0.0
1490.0	0.0	1.0	6.95159	7.85153	-0.11164	26.65731	31.20105	1.84136	0.54308	0.0	106.0991	0.0	0.49974	6.81026	6.81026	1.26361	1.26361	1766.88887	64297.547	44.2264	0.0
1485.0	0.0	1.0	6.95546	7.84716	-0.16723	26.60666	31.12658	1.84053	0.54332	0.0	106.28519	0.0	0.49974	6.87032	6.87032	1.24901	1.24901	1768.66243	64076.924	44.1246	0.0
1480.0	0.0	1.0	6.95933	7.8428	-0.22266	26.55606	31.0521	1.83969	0.54357	0.0	106.47128	0.0	0.49974	6.93125	6.93125	1.23451	1.23451	1770.43269	63856.805	44.0238	0.0
1475.0	0.0	1.0	6.96318	7.83846	-0.27794	26.50552	30.97763	1.83886	0.54382	0.0	106.65737	0.0	0.49974	6.99308	6.99308	1.2201	1.2201	1772.19963	63637.187	43.9236	0.0
1470.0	0.0	1.0	6.96703	7.83413	-0.33306	26.45502	30.90315	1.83802	0.54406	0.0	106.84346	0.0	0.49974	7.05581	7.05581	1.2058	1.2058	1773.9632	63418.068	43.8238	0.0
1465.0	0.0	1.0	6.97088	7.82981	-0.38802	26.40458	30.82868	1.83717	0.54431	0.0	107.02955	0.0	0.49974	7.11948	7.11948	1.19159	1.19159	1775.72335	63199.444	43.7248	0.0
1460.0	0.0	1.0	6.97472	7.8255	-0.44283	26.35419	30.7542	1.83632	0.54457	0.0	107.21564	0.0	0.49974	7.18409	7.18409	1.17747	1.17747	1777.48006	62981.311	43.6266	0.0
1455.0	0.0	1.0	6.97855	7.8212	-0.49749	26.30385	30.67973	1.83547	0.54482	0.0	107.40173	0.0	0.49974	7.24967	7.24967	1.16346	1.16346	1779.23329	62763.667	43.5288	0.0
1450.0	0.0	1.0	6.98237	7.81692	-0.55199	26.25357	30.60525	1.83461	0.54507	0.0	107.58782	0.0	0.49974	7.31623	7.31623	1.14954	1.14954	1780.98298	62546.534	43.4266	0.0
1445.0	0.0	1.0	6.98619	7.81265	-0.60633	26.20334	30.53078	1.83375	0.54533	0.0	107.77391	0.0	0.49974	7.3838	7.3838	1.13571	1.13571	1782.7291	62329.949	43.317	0.0
1440.0	0.0	1.0	6.99	7.80839	-0.66052	26.15317	30.4563	1.83289	0.54559	0.0	107.96	0.0	0.49974	7.45239	7.45239	1.12198	1.12198	1784.47161	62113.905	43.2088	0.0
1438.67	0.0	1.0	6.99102	7.80725	-0.67496	26.13977	30.43643	1.83266	0.54566	0.0	108.00966	0.0	0.49974	7.47087	7.47087	1.11834	1.11834	1784.93601	62056.331	43.1489	0.013
1435.0	0.12258	0.87742	7.01294	7.78296	-0.98405	25.3905	30.86096	1.80358	0.55445	0.0127364	103.45854	0.00429763	0.48179	7.4949	9.60711	1.11236	0.8678	1783.85515	60819.018	337.539	1079.38
1430.0	0.25646	0.74354	7.03761	7.75557	-1.33249	24.55631	31.32936	1.77141	0.56452	0.24904	98.55604	0.0851708	0.462	7.52778	26.80344	1.10426	0.31013	1782.51658	59429.9	277.824	2253.525
1425.0	0.36081	0.63919	7.05748	7.73383	-1.60907	23.9075	31.69789	1.74568	0.57284	0.99305	94.82359	0.34327	0.44645	7.5616	78.9657	1.0961	0.10496	1781.30422	58305.528	224.874	3163.454
1420.44	0.43696	0.56304	7.07257	7.71738	-1.81832	23.42665	31.96667	1.72634	0.57926	2.1672	92.17508	0.75511	0.43502	7.59245	163.54582	1.08871	0.0505422	1780.29847	57450.321	 	3823.38
1420.0	0.44746	0.55254	7.07447	7.71527	-1.84522	23.3621	31.99064	1.72461	0.57984	2.34632	91.96864	0.81837	0.43353	7.59486	182.88253	1.08808	0.0451866	1780.02911	57322.74	196.558	3932.327
1415.0	0.55286	0.44714	7.09365	7.69454	-2.10886	22.73904	32.22779	1.70686	0.58587	5.07174	90.06893	1.78767	0.41853	7.62424	500.18287	1.08069	0.0164729	1777.19584	56017.726	261.003	5023.949
1410.0	0.63022	0.36978	7.10849	7.67863	-2.31131	22.27619	32.38825	1.69337	0.59054	8.72339	88.86062	3.09911	0.4074	7.65401	945.07104	1.0733	0.00869251	1774.64691	55010.625	201.42	5818.177
1405.0	0.68872	0.31128	7.12039	7.66595	-2.47262	21.92115	32.49627	1.68273	0.59427	12.97146	88.08863	4.63632	0.39889	7.68416	1475.09943	1.06591	0.0055526	1772.34469	54203.609	161.403	6412.835
1400.0	0.734	0.266	7.13021	7.65553	-2.60516	21.64149	32.56698	1.67408	0.59734	17.47332	87.60978	6.2753	0.39223	7.71503	2058.57996	1.05848	0.00396692	1770.25811	53536.07	133.508	6868.529
1395.0	0.7698	0.2302	7.13855	7.6468	-2.71622	21.41827	32.61074	1.66683	0.59994	21.966	87.33731	7.91908	0.3869	7.74666	2675.92989	1.05101	0.00304262	1768.35649	52968.64	113.486	7224.621
1390.0	0.79858	0.20142	7.14576	7.63928	-2.81192	21.23535	32.63419	1.66064	0.60218	26.28229	87.21258	9.50489	0.38257	7.77931	3316.20207	1.04346	0.00244781	1766.62006	52474.822	98.7636	7507.607
1385.0	0.82223	0.17777	7.1522	7.63258	-2.89713	21.07983	32.64253	1.65523	0.60415	30.36234	87.1948	11.00921	0.37895	7.81237	3977.9098	1.03592	0.00203449	1765.03312	52034.806	88.0032	7737.293
1380.0	0.84195	0.15805	7.15806	7.62655	-2.97389	20.94645	32.63922	1.6504	0.60591	34.17021	87.25868	12.41743	0.3759	7.84606	4659.94982	1.02836	0.00173148	1763.57679	51636.012	79.7588	7926.256
1375.0	0.8586	0.1414	7.16344	7.62103	-3.04409	20.83017	32.62668	1.64604	0.60752	37.7015	87.38542	13.72682	0.37328	7.88076	5363.60033	1.02074	0.00149978	1762.23733	51269.39	73.3244	8083.542
1370.0	0.8728	0.1272	7.16847	7.61592	-3.10913	20.72731	32.60685	1.64205	0.609	40.96895	87.56124	14.94117	0.37101	7.91617	6091.21043	1.01309	0.00131662	1761.00269	50928.296	68.2188	8215.794
1365.0	0.88505	0.11495	7.17321	7.61112	-3.1702	20.63475	32.58108	1.63835	0.61037	43.99142	87.77613	16.06678	0.36902	7.9522	6845.94076	1.00543	0.0011679	1759.86453	50607.755	64.1082	8327.982
1360.0	0.89569	0.10431	7.17772	7.6066	-3.22771	20.55144	32.55048	1.63488	0.61166	46.7892	88.02288	17.1106	0.36726	7.98922	7631.02456	0.99772	0.00104455	1758.80995	50303.982	60.7546	8423.889
1355.0	0.90501	0.0949891	7.18203	7.60227	-3.28277	20.47437	32.51576	1.63162	0.61289	49.3845	88.29536	18.08047	0.36569	8.02683	8450.09709	0.99	9.40415E-4	1757.83759	50014.053	57.9858	8506.436
1351.35	0.91103	0.0889729	7.18505	7.59926	-3.32106	20.42313	32.48819	1.62934	0.61375	51.14292	88.50791	18.73843	0.36465	8.05501	9068.19216	0.98433	8.7435E-4	1757.16389	49810.577	 	8558.745
1350.0	0.91382	0.0861786	7.18649	7.59782	-3.33936	20.3924	32.48005	1.62839	0.6141	51.96234	88.57304	19.04524	0.36418	8.06756	9330.36289	0.98198	8.49077E-4	1757.25023	49728.763	57.058	8584.824
1345.0	0.92336	0.0766363	7.19162	7.59276	-3.40372	20.28788	32.44725	1.62502	0.61538	54.85754	88.83473	20.13039	0.36256	8.11568	10331.29261	0.97315	7.64453E-4	1757.59261	49434.474	58.8578	8672.689
1340.0	0.93159	0.0684106	7.19643	7.58804	-3.46378	20.19475	32.41017	1.62185	0.61658	57.49412	89.12355	21.12015	0.36112	8.16431	11370.44897	0.96437	6.92443E-4	1757.97395	49154.679	55.959	8746.535
1335.0	0.93874	0.0612611	7.20099	7.58361	-3.52021	20.11123	32.36965	1.61885	0.61772	59.90818	89.43429	22.02763	0.35984	8.21352	12454.2121	0.95562	6.30227E-4	1758.38779	48886.684	53.599	8809.051
1330.0	0.945	0.0550002	7.20532	7.57942	-3.57346	20.03618	32.32627	1.61598	0.61882	62.13032	89.76344	22.86399	0.35869	8.26399	13589.11853	0.94683	5.75797E-4	1758.8253	48628.417	51.6534	8862.311
1325.0	0.95052	0.0494786	7.20948	7.57542	-3.62441	19.96712	32.28045	1.61323	0.61988	64.18713	90.10732	23.63898	0.35765	8.31475	14781.48039	0.93811	5.27699E-4	1759.29396	48378.253	50.0328	8907.932
1320.0	0.95542	0.044582	7.21349	7.57158	-3.67317	19.90385	32.2326	1.61057	0.6209	66.1	90.46382	24.36046	0.35671	8.36683	16038.15297	0.92936	4.84829E-4	1759.78215	48134.911	48.6684	8947.196
1315.0	0.95978	0.040215	7.21737	7.56788	-3.72025	19.84492	32.18301	1.60799	0.6219	67.88791	90.83065	25.03544	0.35584	8.41956	17365.94067	0.92064	4.46354E-4	1760.29425	47897.36	47.5102	8981.129
1310.0	0.9637	0.0362999	7.22115	7.5643	-3.76585	19.78986	32.13191	1.60547	0.62287	69.5662	91.20637	25.66957	0.35503	8.47304	18772.164	0.91195	4.11618E-4	1760.82565	47664.77	46.518	9010.559
1305.0	0.96722	0.0327751	7.22483	7.56082	-3.81014	19.73818	32.07954	1.60302	0.62382	71.14811	91.58974	26.26774	0.35429	8.5276	20264.23832	0.90325	3.80106E-4	1761.37318	47436.457	45.6626	9036.168
1300.0	0.97041	0.0295882	7.22844	7.55742	-3.85331	19.68935	32.02603	1.60061	0.62476	72.64549	91.97965	26.83436	0.35359	8.58328	21850.50233	0.89455	3.51395E-4	1761.93546	47211.865	44.9184	9058.506
1295.0	0.97331	0.0266942	7.23197	7.55411	-3.89553	19.64293	31.97157	1.59824	0.62569	74.06806	92.37508	27.37303	0.35294	8.63982	23539.22452	0.88587	3.25149E-4	1762.51173	46990.524	44.2682	9078.046
1290.0	0.97594	0.0240569	7.23545	7.55085	-3.93695	19.59851	31.91623	1.5959	0.6266	75.42493	92.77542	27.88716	0.35232	8.69755	25339.95944	0.87718	3.0108E-4	1763.10137	46772.044	43.696	9095.171
1285.0	0.97836	0.0216446	7.23887	7.54765	-3.97763	19.55592	31.86013	1.5936	0.62751	76.72254	93.17991	28.37913	0.35174	8.75618	27262.30057	0.86852	2.78955E-4	1763.70191	46556.095	43.1898	9110.209
1280.0	0.98057	0.0194314	7.24225	7.5445	-4.01769	19.51484	31.80336	1.59132	0.62841	77.96831	93.58813	28.85171	0.35119	8.81609	29316.94086	0.85985	2.58572E-4	1764.31315	46342.399	42.7392	9123.438
1275.0	0.98261	0.0173928	7.24559	7.5414	-4.05721	19.47502	31.74601	1.58907	0.6293	79.16772	93.99935	29.30695	0.35066	8.877	31515.13673	0.8512	2.39762E-4	1764.93556	46130.718	42.3362	9135.091
1270.0	0.98449	0.0155091	7.24889	7.53833	-4.0962	19.43649	31.68812	1.58683	0.63019	80.32584	94.41357	29.74675	0.35016	8.93928	33869.6719	0.84254	2.22374E-4	1765.56183	45920.845	41.9746	9145.372
1265.0	0.98624	0.0137627	7.25216	7.5353	-4.13477	19.39889	31.62977	1.5846	0.63107	81.44711	94.83009	30.17277	0.34968	9.00301	36393.56928	0.83387	2.06282E-4	1766.19727	45712.606	41.6478	9154.455
1260.0	0.98787	0.012127	7.25541	7.53229	-4.17303	19.36195	31.57105	1.58239	0.63196	82.54052	95.24855	30.58841	0.34921	9.06782	39103.40694	0.82522	1.91362E-4	1766.83953	45505.854	41.3504	9162.483
1255.0	0.98941	0.0105863	7.25865	7.52931	-4.21101	19.32555	31.51201	1.58018	0.63284	83.61012	95.66872	30.99519	0.34876	9.13412	42015.86346	0.81656	1.77517E-4	1767.48716	45300.467	41.0774	9169.575
1250.0	0.99087	0.00912923	7.26188	7.52634	-4.24873	19.28961	31.45269	1.57798	0.63372	84.65918	96.09041	31.39435	0.34832	9.20201	45148.28714	0.80788	1.6466E-4	1768.13678	45096.34	40.8254	9175.835
1245.0	0.99225	0.00774764	7.26509	7.52339	-4.28627	19.25396	31.39311	1.57579	0.6346	85.69033	96.51336	31.78688	0.34789	9.27111	48519.67419	0.79923	1.52716E-4	1768.79348	44893.377	40.5926	9181.354
1240.0	0.99356	0.00643532	7.2683	7.52046	-4.3236	19.21865	31.33329	1.5736	0.63549	86.70467	96.93754	32.17317	0.34747	9.34189	52150.49855	0.79056	1.41615E-4	1769.44986	44691.492	40.377	9186.227
1238.95	0.99395	0.00605485	7.26907	7.51979	-4.33206	19.20935	31.32086	1.57313	0.63568	86.96204	97.02676	32.27123	0.34736	9.3566	52979.0011	0.78877	1.39304E-4	1769.59274	44648.327	 	9187.915
1235.0	0.9955	0.00449863	7.27172	7.517	-4.36753	19.16272	31.27472	1.57134	0.6364	88.02063	97.37297	32.67541	0.34689	9.54035	56235.18069	0.77156	1.30895E-4	1768.73791	44473.338	43.6308	9207.801
1230.0	0.99704	0.00295667	7.27498	7.51358	-4.41112	19.10736	31.21578	1.56908	0.63732	89.19691	97.81004	33.12464	0.34638	9.7744	60558.4044	0.75058	1.21148E-4	1767.79293	44258.48	42.9716	9226.509
1225.0	0.99825	0.00175362	7.27815	7.51025	-4.45353	19.05525	31.15647	1.56684	0.63823	90.24152	98.24587	33.52369	0.34594	10.01022	65145.16421	0.73046	1.12243E-4	1766.96291	44049.109	41.8742	9240.156
1220.0	0.99921	7.89408E-4	7.28126	7.50698	-4.49501	19.00557	31.09681	1.56461	0.63914	91.19358	98.68089	33.88745	0.34554	10.2481	70038.10269	0.71113	1.04053E-4	1766.22895	43843.693	41.0832	9250.274
1215.0	1.0	0.0	7.28431	7.50378	-4.53572	18.95787	31.03697	1.56237	0.64005	92.07661	99.11518	34.22492	0.34517	 	75274.72404	 	9.64904E-5	 	43641.241	40.4904	9257.85
1210.0	1.0	0.0	7.28667	7.50135	-4.5667	18.94042	30.97443	1.56027	0.64092	92.5985	99.54585	34.42413	0.34497	 	80653.06057	 	8.97534E-5	 	43422.733	43.7016	 
1205.0	1.0	0.0	7.28904	7.49892	-4.59762	18.92298	30.91189	1.55816	0.64178	93.1214	99.97647	34.62377	0.34476	 	86458.07475	 	8.34449E-5	 	43232.839	37.9788	 
1200.0	1.0	0.0	7.2914	7.49649	-4.6285	18.90554	30.84935	1.55603	0.64266	93.64529	100.40702	34.82384	0.34456	 	92726.853	 	7.75404E-5	 	43043.179	37.932	 
1195.0	1.0	0.0	7.29375	7.49407	-4.65932	18.8881	30.78681	1.5539	0.64354	94.17014	100.83747	35.02433	0.34435	 	99499.97876	 	7.20169E-5	 	42853.769	37.882	 
1190.0	1.0	0.0	7.29611	7.49165	-4.6901	18.87068	30.72426	1.55176	0.64443	94.69593	101.26781	35.22523	0.34415	 	106821.8875	 	6.68521E-5	 	42664.614	37.831	 
1185.0	1.0	0.0	7.29846	7.48923	-4.72083	18.85325	30.66172	1.54961	0.64532	95.22265	101.698	35.42653	0.34395	 	114741.2603	 	6.20254E-5	 	42475.714	37.78	 
1180.0	1.0	0.0	7.30081	7.48682	-4.75151	18.83584	30.59917	1.54746	0.64622	95.75026	102.12803	35.62823	0.34374	 	123311.4602	 	5.75167E-5	 	42287.068	37.7292	 
1175.0	1.0	0.0	7.30316	7.48441	-4.78215	18.81843	30.53662	1.54529	0.64713	96.27874	102.55786	35.83031	0.34354	 	132591.0172	 	5.33072E-5	 	42098.675	37.6786	 
1170.0	1.0	0.0	7.30551	7.48201	-4.81273	18.80103	30.47407	1.54312	0.64804	96.80807	102.98749	36.03277	0.34333	 	142644.166	 	4.93792E-5	 	41910.534	37.6282	 
1165.0	1.0	0.0	7.30785	7.47961	-4.84327	18.78363	30.41152	1.54093	0.64896	97.33824	103.41688	36.23561	0.34313	 	153541.4446	 	4.57157E-5	 	41722.642	37.5784	 
1160.0	1.0	0.0	7.3102	7.47721	-4.87375	18.76624	30.34896	1.53874	0.64988	97.86921	103.84601	36.4388	0.34293	 	165360.3591	 	4.23006E-5	 	41534.998	37.5288	 
1155.0	1.0	0.0	7.31254	7.47482	-4.90419	18.74885	30.28641	1.53654	0.65081	98.40096	104.27485	36.64235	0.34272	 	178186.1245	 	3.91189E-5	 	41347.601	37.4794	 
1150.0	1.0	0.0	7.31487	7.47243	-4.93458	18.73147	30.22385	1.53433	0.65175	98.93348	104.7034	36.84624	0.34252	 	192112.4887	 	3.61561E-5	 	41160.45	37.4302	 
1145.0	1.0	0.0	7.31721	7.47005	-4.96493	18.7141	30.16129	1.53211	0.65269	99.46673	105.13162	37.05047	0.34231	 	207242.6512	 	3.33987E-5	 	40973.542	37.3816	 
1140.0	1.0	0.0	7.31954	7.46767	-4.99522	18.69673	30.09873	1.52988	0.65365	100.0007	105.55949	37.25503	0.34211	 	223690.2876	 	3.08339E-5	 	40786.875	37.3334	 
1135.0	1.0	0.0	7.32187	7.46529	-5.02546	18.67937	30.03617	1.52764	0.6546	100.53537	105.98699	37.45991	0.34191	 	241580.6922	 	2.84494E-5	 	40600.45	37.285	 
1130.0	1.0	0.0	7.3242	7.46292	-5.05566	18.66201	29.97361	1.5254	0.65557	101.07072	106.4141	37.66511	0.3417	 	261052.0546	 	2.6234E-5	 	40414.263	37.2374	 
1125.0	1.0	0.0	7.32653	7.46055	-5.08581	18.64466	29.91104	1.52314	0.65654	101.60671	106.8408	37.87061	0.3415	 	282256.8852	 	2.41766E-5	 	40228.313	37.19	 
1120.0	1.0	0.0	7.32885	7.45818	-5.11591	18.62732	29.84847	1.52087	0.65752	102.14334	107.26707	38.07641	0.34129	 	305363.6098	 	2.22673E-5	 	40042.598	37.143	 
1115.0	1.0	0.0	7.33117	7.45582	-5.14596	18.60998	29.7859	1.5186	0.6585	102.68058	107.69288	38.2825	0.34109	 	330558.3532	 	2.04963E-5	 	39857.116	37.0964	 
1110.0	1.0	0.0	7.33349	7.45346	-5.17597	18.59265	29.72333	1.51632	0.65949	103.21841	108.11822	38.48887	0.34089	 	358046.9373	 	1.88545E-5	 	39671.867	37.0498	 
1105.0	1.0	0.0	7.33581	7.4511	-5.20592	18.57532	29.66076	1.51402	0.66049	103.7568	108.54306	38.69551	0.34068	 	388057.1186	 	1.73336E-5	 	39486.847	37.004	 
1100.0	1.0	0.0	7.33813	7.44875	-5.23583	18.558	29.59818	1.51172	0.6615	104.29574	108.96739	38.90242	0.34048	 	420841.0983	 	1.59253E-5	 	39302.055	36.9584	 
1095.0	1.0	0.0	7.34044	7.44641	-5.26569	18.54069	29.53561	1.5094	0.66251	104.8352	109.39118	39.10959	0.34027	 	456678.3383	 	1.46221E-5	 	39117.489	36.9132	 
1090.0	1.0	0.0	7.34275	7.44406	-5.2955	18.52338	29.47303	1.50708	0.66353	105.37517	109.81442	39.31701	0.34007	 	495878.7244	 	1.3417E-5	 	38933.147	36.8684	 
1085.0	1.0	0.0	7.34506	7.44172	-5.32526	18.50608	29.41045	1.50475	0.66456	105.91562	110.23708	39.52468	0.33987	 	538786.1196	 	1.23032E-5	 	38749.027	36.824	 
1080.0	1.0	0.0	7.34736	7.43939	-5.35498	18.48878	29.34787	1.50241	0.6656	106.45653	110.65915	39.73258	0.33966	 	585782.362	 	1.12745E-5	 	38565.128	36.7798	 
1075.0	1.0	0.0	7.34967	7.43706	-5.38465	18.47149	29.28528	1.50005	0.66664	106.99788	111.0806	39.94071	0.33946	 	637291.7638	 	1.03249E-5	 	38381.446	36.7364	 
1070.0	1.0	0.0	7.35197	7.43473	-5.41426	18.4542	29.2227	1.49769	0.66769	107.53966	111.50142	40.14905	0.33926	 	693786.1786	 	9.44899E-6	 	38197.98	36.6932	 
1065.0	1.0	0.0	7.35427	7.4324	-5.44383	18.43693	29.16011	1.49532	0.66875	108.08183	111.92159	40.35761	0.33905	 	755790.7147	 	8.64152E-6	 	38014.728	36.6504	 
1060.0	1.0	0.0	7.35657	7.43008	-5.47336	18.41965	29.09752	1.49293	0.66982	108.62438	112.34109	40.56638	0.33885	 	823890.1792	 	7.89762E-6	 	37831.687	36.6082	 
1055.0	1.0	0.0	7.35886	7.42777	-5.50283	18.40239	29.03493	1.49054	0.6709	109.16729	112.7599	40.77534	0.33864	 	898736.3554	 	7.21276E-6	 	37648.855	36.5664	 
1050.0	1.0	0.0	7.36115	7.42545	-5.53226	18.38513	28.97234	1.48814	0.67198	109.71054	113.178	40.9845	0.33844	 	981056.2246	 	6.58267E-6	 	37466.231	36.5248	 
1045.0	1.0	0.0	7.36344	7.42314	-5.56164	18.36787	28.90974	1.48572	0.67307	110.2541	113.59537	41.19383	0.33824	 	1071661.265	 	6.00335E-6	 	37283.81	36.4842	 
1040.0	1.0	0.0	7.36573	7.42084	-5.59097	18.35062	28.84714	1.4833	0.67417	110.79797	114.01201	41.40334	0.33803	 	1171457.976	 	5.4711E-6	 	37101.592	36.4436	 
1035.0	1.0	0.0	7.36802	7.41854	-5.62025	18.33338	28.78454	1.48087	0.67528	111.34211	114.42787	41.61302	0.33783	 	1281459.801	 	4.98241E-6	 	36919.574	36.4036	 
1030.0	1.0	0.0	7.3703	7.41624	-5.64949	18.31614	28.72194	1.47842	0.6764	111.8865	114.84296	41.82286	0.33762	 	1402800.642	 	4.53404E-6	 	36737.752	36.3644	 
1025.0	1.0	0.0	7.37258	7.41395	-5.67867	18.29891	28.65934	1.47597	0.67752	112.43114	115.25725	42.03285	0.33742	 	1536750.193	 	4.12295E-6	 	36556.125	36.3254	 
1020.0	1.0	0.0	7.37486	7.41165	-5.70781	18.28169	28.59673	1.4735	0.67866	112.97599	115.67073	42.24298	0.33722	 	1684731.365	 	3.74632E-6	 	36374.69	36.287	 
1015.0	1.0	0.0	7.37713	7.40937	-5.73691	18.26447	28.53413	1.47102	0.6798	113.52104	116.08337	42.45325	0.33701	 	1848340.072	 	3.40151E-6	 	36193.443	36.2494	 
1010.0	1.0	0.0	7.37941	7.40708	-5.76595	18.24726	28.47152	1.46854	0.68095	114.06626	116.49517	42.66366	0.33681	 	2029367.761	 	3.08605E-6	 	36012.383	36.212	 
1005.0	1.0	0.0	7.38168	7.40481	-5.79495	18.23005	28.40891	1.46604	0.68211	114.61165	116.9061	42.87418	0.3366	 	2229827.049	 	2.79768E-6	 	35831.506	36.1754	 
1000.0	1.0	0.0	7.38395	7.40253	-5.8239	18.21285	28.34629	1.46353	0.68328	115.15717	117.31614	43.08483	0.3364	 	2451980.953	 	2.53425E-6	 	35650.81	36.1392	 
995.0	1.0	0.0	7.38621	7.40026	-5.8528	18.19566	28.28368	1.46101	0.68446	115.70281	117.72528	43.29558	0.3362	 	2698376.225	 	2.2938E-6	 	35470.291	36.1038	 
990.0	1.0	0.0	7.38848	7.39799	-5.88165	18.17847	28.22106	1.45848	0.68565	116.24854	118.13351	43.50643	0.33599	 	2971881.415	 	2.07448E-6	 	35289.946	36.069	 
985.0	1.0	0.0	7.39074	7.39573	-5.91045	18.16128	28.15844	1.45593	0.68684	116.79436	118.54081	43.71737	0.33579	 	3275730.372	 	1.87461E-6	 	35109.772	36.0348	 
980.0	1.0	0.0	7.393	7.39347	-5.93921	18.14411	28.09582	1.45338	0.68805	117.34023	118.94715	43.92841	0.33558	 	3613572.0	 	1.69259E-6	 	34929.767	36.001	 
975.0	1.0	0.0	7.39526	7.39121	-5.96792	18.12694	28.03319	1.45081	0.68927	117.88615	119.35253	44.13952	0.33538	 	3989527.229	 	1.52698E-6	 	34749.925	35.9684	 
970.0	1.0	0.0	7.39751	7.38896	-5.99659	18.10977	27.97057	1.44824	0.69049	118.43208	119.75693	44.3507	0.33518	 	4408254.308	 	1.3764E-6	 	34570.244	35.9362	 
965.0	1.0	0.0	7.39976	7.38671	-6.0252	18.09261	27.90794	1.44565	0.69173	118.97802	120.16033	44.56195	0.33497	 	4875023.706	 	1.2396E-6	 	34390.721	35.9046	 
