T (C)	Fraction solid (wt)-TOTAL	Fraction liquid (wt)-LIQUID	Density (g/(cm)^3)-TOTAL	Molar volume (cm^3)-TOTAL	Volume change (%)-  	Average expansion coeff. (10e-6 1/K)-  	Thermal conductivity (W/(m*K))-TOTAL	Electrical resistivity (10e-6 Ohm*m)-TOTAL	Electrical conductivity (10e6 1/(Ohm*m))-TOTAL	Young's modulus (GPa)-TOTAL	Bulk modulus (GPa)-TOTAL	Shear modulus(GPa)-TOTAL	Poisson's ratio-TOTAL	Liquid viscosity (mPa s)-  	Total viscosity (mPa s)-  	Liquid diffusivity (10e-9 (m^2)/s)-  	Total diffusivity (10e-9 (m^2)/s)-  	Surface Tension (mN/m)-  	Enthalpy (J/mole)-TOTAL	Specific heat (J/(mole K))-TOTAL	Latent heat (J/mole)-TOTAL
700.0	0.0	1.0	1.63737	15.14064	0.0	53.38293	79.46885	0.30002	3.33312	0.0	25.72209	0.0	0.5	1.24229	1.24229	3.82334	3.82334	547.54236	27276.714	 	0.0
695.0	0.0	1.0	1.63867	15.12865	-0.0791589	53.34492	79.13183	0.29975	3.33613	0.0	25.79114	0.0	0.5	1.25681	1.25681	3.75976	3.75976	549.26965	27105.623	34.2182	0.0
690.0	0.0	1.0	1.63996	15.11672	-0.158	53.30809	78.7948	0.29948	3.33916	0.0	25.86019	0.0	0.5	1.27165	1.27165	3.6967	3.6967	550.99702	26934.522	34.2202	0.0
685.0	0.0	1.0	1.64125	15.10483	-0.23652	53.27249	78.45777	0.2992	3.34223	0.0	25.92924	0.0	0.5	1.28682	1.28682	3.63415	3.63415	552.72446	26763.412	34.222	0.0
680.0	0.0	1.0	1.64254	15.09299	-0.31473	53.23814	78.12075	0.29892	3.34533	0.0	25.99829	0.0	0.5	1.30233	1.30233	3.57212	3.57212	554.45198	26592.292	34.224	0.0
676.3	0.0	1.0	1.64349	15.08426	-0.37236	53.21356	77.8715	0.29872	3.34764	0.0	26.04936	0.0	0.5	1.31403	1.31403	3.52658	3.52658	555.72962	26465.734	34.2257	0.0
675.0	1.0E-4	0.9999	1.64383	15.08113	-0.39307	53.20246	77.78545	0.29864	3.34854	3.51015E-16	26.06696	1.17006E-16	0.49999	1.31808	1.31808	3.51093	3.51093	556.17514	26418.667	36.1428	2.495
670.0	4.9E-4	0.99951	1.64515	15.06909	-0.47256	53.1597	77.45474	0.29833	3.35198	1.78657E-13	26.13469	5.95546E-14	0.49995	1.33385	1.33385	3.45112	3.45112	557.88617	26238.186	36.0962	11.837
665.0	8.7E-4	0.99913	1.64646	15.0571	-0.55175	53.11794	77.12367	0.29802	3.35544	1.7109E-12	26.20251	5.70335E-13	0.4999	1.35001	1.35001	3.39174	3.39174	559.59786	26058.078	36.0216	20.796
660.0	0.00123	0.99877	1.64777	15.04514	-0.63073	53.0768	76.79222	0.29771	3.35892	6.85605E-12	26.27036	2.28556E-12	0.49986	1.36655	1.36655	3.33281	3.33281	561.31019	25878.331	35.9494	29.385
655.0	0.00157	0.99843	1.64907	15.03322	-0.70945	53.0365	76.46042	0.2974	3.36242	1.85045E-11	26.33829	6.16889E-12	0.49982	1.38351	1.38351	3.27434	3.27434	563.02315	25698.945	35.8772	37.616
650.0	0.0019	0.9981	1.65037	15.02149	-0.78693	53.00292	76.129	0.29709	3.36598	3.98081E-11	26.40652	1.32712E-11	0.49979	1.40088	1.40088	3.21631	3.21631	564.73667	25519.92	35.805	45.498
645.0	0.00221	0.99779	1.65166	15.00963	-0.86528	52.9636	75.79642	0.29678	3.36953	7.39376E-11	26.47452	2.465E-11	0.49975	1.41868	1.41868	3.15875	3.15875	566.44944	25341.554	35.6732	53.044
640.0	0.00251	0.99749	1.65295	14.99795	-0.94241	52.93095	75.46421	0.29646	3.37313	1.23808E-10	26.54284	4.12771E-11	0.49972	1.43693	1.43693	3.10165	3.10165	568.16421	25164.174	35.476	60.263
635.0	0.0028	0.9972	1.65423	14.98644	-1.01843	52.90447	75.13233	0.29614	3.37678	1.92054E-10	26.61139	6.40312E-11	0.49969	1.45564	1.45564	3.04503	3.04503	569.8795	24987.76	35.2828	67.166
630.0	0.00307	0.99693	1.65551	14.97479	-1.09537	52.87197	74.79928	0.29582	3.38043	2.80802E-10	26.6797	9.36221E-11	0.49966	1.47482	1.47482	2.98888	2.98888	571.59533	24812.293	35.0934	73.763
625.0	0.00333	0.99667	1.65678	14.96331	-1.17124	52.84549	74.46652	0.2955	3.38412	3.91788E-10	26.74825	1.30628E-10	0.49963	1.49449	1.49449	2.93322	2.93322	573.31165	24637.753	34.908	80.064
620.0	0.00358	0.99642	1.65805	14.95183	-1.24706	52.81889	74.13333	0.29517	3.38784	5.26193E-10	26.81679	1.75444E-10	0.4996	1.51466	1.51466	2.87803	2.87803	575.02846	24464.122	34.7262	86.079
615.0	0.00382	0.99618	1.65932	14.94035	-1.32286	52.79202	73.7997	0.29485	3.39158	6.84809E-10	26.88531	2.28335E-10	0.49957	1.53536	1.53536	2.82334	2.82334	576.74575	24291.379	34.5486	91.818
610.0	0.00405	0.99595	1.66058	14.92903	-1.39762	52.77118	73.46635	0.29452	3.39538	8.67659E-10	26.95406	2.89307E-10	0.49955	1.5566	1.5566	2.76914	2.76914	578.46347	24119.507	34.3744	97.289
608.5	0.00411	0.99589	1.66095	14.92568	-1.41975	52.76673	73.36648	0.29442	3.39653	9.27141E-10	26.97475	3.09142E-10	0.49954	1.56307	1.56307	2.75298	2.75298	578.97881	24068.122	 	98.877
605.0	0.10672	0.89328	1.66801	14.86265	-1.83602	50.43417	77.5289	0.27751	3.60354	0.0029672	27.04482	0.00100083	0.48237	1.57976	2.29431	2.71309	1.86811	580.62637	23113.868	201.128	937.121
600.0	0.22371	0.77629	1.67627	14.78926	-2.32076	47.75891	82.46037	0.25942	3.8547	0.063819	27.24504	0.0218173	0.46258	1.60418	12.63426	2.65657	0.33731	582.97858	21999.974	222.779	1885.794
595.0	0.31492	0.68508	1.68294	14.73073	-2.70737	45.67256	86.5774	0.24567	4.07046	0.26154	27.43412	0.0903749	0.44696	1.62928	48.26503	2.60068	0.0877908	585.32897	21102.199	179.555	2618.924
590.0	0.38776	0.61224	1.68846	14.68249	-3.02599	43.99379	90.09663	0.23472	4.26046	0.61822	27.61421	0.21551	0.43435	1.65505	119.48089	2.54544	0.0352594	587.67735	20358.134	148.813	3198.913
585.0	0.44711	0.55289	1.69312	14.642	-3.29336	42.62304	93.13247	0.22575	4.42967	1.11645	27.78749	0.39202	0.42397	1.68149	231.66839	2.49089	0.0180794	590.02355	19726.821	126.263	3666.709
580.0	0.49627	0.50373	1.69714	14.60731	-3.52249	41.4821	95.75587	0.21829	4.58114	1.72498	27.95502	0.60941	0.41529	1.70864	388.03368	2.43704	0.0107311	592.36754	19180.37	109.29	4050.195
575.0	0.53758	0.46242	1.70064	14.57708	-3.72219	40.51809	97.97872	0.21208	4.71512	2.41178	28.11775	0.85651	0.40792	1.73649	591.2495	2.3839	0.00700146	594.70935	18699.19	96.236	4368.954
570.0	0.57271	0.42729	1.70375	14.55037	-3.89859	39.6943	99.9301	0.20672	4.83755	3.14968	28.27636	1.12362	0.40158	1.76506	844.59625	2.33148	0.00487239	597.04902	18269.155	86.007	4637.103
565.0	0.60292	0.39708	1.70653	14.52652	-4.05612	38.98426	101.60929	0.20209	4.94818	3.91673	28.43158	1.40276	0.39608	1.79438	1152.20466	2.27979	0.00355041	599.38659	17879.849	77.8612	4865.05
560.0	0.62914	0.37086	1.70906	14.50498	-4.19833	38.36678	103.05296	0.19807	5.0486	4.69705	28.58363	1.68806	0.39126	1.82447	1519.58921	2.22881	0.00267599	601.72213	17523.441	71.2816	5060.619
555.0	0.65209	0.34791	1.71137	14.48524	-4.32871	37.82011	104.29012	0.19455	5.14006	5.4784	28.73262	1.97492	0.38699	1.85535	1953.36728	2.17856	0.00206924	604.05581	17193.942	65.8998	5229.791
550.0	0.67232	0.32768	1.7135	14.46704	-4.44895	37.33435	105.34973	0.19143	5.22382	6.25294	28.87888	2.26035	0.38318	1.88706	2462.29923	2.12902	0.00163164	606.38768	16886.7	61.4484	5377.211
545.0	0.69029	0.30971	1.71548	14.45014	-4.56054	36.90069	106.25418	0.18865	5.30087	7.01444	29.02287	2.54191	0.37976	1.91961	3056.40275	2.0802	0.0013065	608.7178	16598.058	57.7284	5506.529
540.0	0.70634	0.29366	1.71733	14.43437	-4.66475	36.51156	107.02493	0.18615	5.37215	7.75973	29.16462	2.81831	0.37666	1.95305	3748.3657	2.03209	0.0010588	611.04626	16325.101	54.5914	5620.653
535.0	0.72075	0.27925	1.71908	14.41955	-4.76264	36.16053	107.67812	0.18388	5.43838	8.48599	29.30425	3.08841	0.37385	1.98741	4552.51564	1.98469	8.66418E-4	613.37311	16065.482	51.9238	5721.921
530.91	0.73149	0.26851	1.72043	14.40802	-4.83874	35.89725	108.13625	0.18217	5.4893	9.06421	29.417	3.30395	0.37173	2.01621	5305.40312	1.94644	7.39702E-4	615.27541	15861.761	 	5796.464
530.91	0.73149	0.26851	1.72043	14.40802	-4.83874	35.89725	108.13625	0.18217	5.4893	9.06421	29.417	3.30395	0.37173	2.01621	5305.40312	1.94644	7.39702E-4	615.27541	15861.761	 	5796.464
530.0	0.73378	0.26622	1.72073	14.40551	-4.85532	35.84064	108.23205	0.18181	5.50039	9.19183	29.44184	3.35158	0.37127	2.02268	5486.28802	1.93801	7.14504E-4	615.6983	15817.098	49.6768	5812.431
525.0	0.74574	0.25426	1.72231	14.3921	-4.94391	35.5446	108.70135	0.17989	5.55884	9.88394	29.57732	3.61024	0.36887	2.05887	6575.0237	1.89209	5.9248E-4	618.02121	15577.217	47.9762	5894.908
523.34	0.74944	0.25056	1.72282	14.38778	-4.97241	35.4518	108.8402	0.17929	5.57754	10.10809	29.62188	3.69415	0.36812	2.07111	6973.33174	1.87699	5.57477E-4	618.79228	15499.72	 	5920.247
520.0	0.75724	0.24276	1.72384	14.37913	-5.02956	35.26453	109.12078	0.17808	5.61547	10.59002	29.71546	3.87471	0.36656	2.09544	7864.24113	1.84742	4.92249E-4	620.35114	15337.898	47.8638	5977.285
515.0	0.76803	0.23197	1.72531	14.36662	-5.11221	35.00136	109.47224	0.17639	5.66929	11.29239	29.85336	4.13836	0.36436	2.13278	9377.37449	1.80364	4.10218E-4	622.68376	15103.552	46.8692	6055.146
510.0	0.77786	0.22214	1.72672	14.35469	-5.191	34.76217	109.75189	0.17482	5.72007	11.96944	29.98912	4.39302	0.36233	2.17124	11134.53227	1.76045	3.43289E-4	625.01501	14877.716	45.1672	6124.947
505.0	0.78686	0.21314	1.72808	14.3432	-5.26691	34.54016	109.9699	0.17336	5.76825	12.62382	30.12257	4.63962	0.36044	2.21086	13178.32975	1.71787	2.88197E-4	627.34509	14659.283	43.6866	6187.788
500.0	0.79512	0.20488	1.72939	14.33213	-5.34001	34.33527	110.13237	0.17199	5.81414	13.25506	30.25401	4.87794	0.35867	2.25168	15556.06484	1.67588	2.42578E-4	629.67393	14447.336	42.3894	6244.581
495.0	0.80273	0.19727	1.73066	14.32141	-5.41077	34.14442	110.24644	0.17071	5.85804	13.8651	30.38344	5.10864	0.35702	2.29376	18326.24006	1.6345	2.04578E-4	632.00164	14241.103	41.2466	6296.091
490.0	0.80978	0.19022	1.73189	14.31101	-5.47946	33.96594	110.31689	0.16949	5.90019	14.45512	30.51095	5.33214	0.35547	2.33715	21556.92192	1.59371	1.72787E-4	634.32828	14039.931	40.2344	6342.965
485.0	0.81633	0.18367	1.73308	14.3009	-5.54629	33.79855	110.34947	0.16833	5.94086	15.02628	30.63659	5.54883	0.354	2.38189	25330.09419	1.55353	1.46085E-4	636.65393	13843.266	39.333	6385.751
480.0	0.82241	0.17759	1.73425	14.29105	-5.61133	33.64196	110.34816	0.16722	5.98022	15.58034	30.76055	5.75934	0.35261	2.42805	29743.49242	1.51395	1.23588E-4	638.97859	13650.634	38.5264	6424.917
475.0	0.8281	0.1719	1.73539	14.28143	-5.67486	33.49426	110.31538	0.16616	6.0184	16.11719	30.88275	5.9636	0.3513	2.47568	34910.13655	1.47496	1.04598E-4	641.30239	13461.626	37.8016	6460.869
470.0	0.83343	0.16657	1.73651	14.27203	-5.73695	33.35526	110.25496	0.16514	6.05558	16.63837	31.00335	6.16218	0.35004	2.52484	40968.87515	1.43658	8.85338E-5	643.62536	13275.887	37.1478	6493.952
465.0	0.83843	0.16157	1.73761	14.26281	-5.79783	33.22326	110.16963	0.16415	6.09188	17.14532	31.12235	6.35558	0.34884	2.57561	48085.41983	1.39879	7.49235E-5	645.94763	13093.11	36.5554	6524.471
460.0	0.84312	0.15688	1.73868	14.25378	-5.85747	33.09868	110.06163	0.1632	6.12741	17.63879	31.23981	6.54409	0.34769	2.62805	56457.31702	1.36159	6.3381E-5	648.26922	12913.027	36.0166	6552.687
455.0	0.84756	0.15244	1.73974	14.2449	-5.91612	32.97975	109.93259	0.16228	6.16225	18.11913	31.35574	6.7278	0.34659	2.68223	66319.70507	1.32499	5.35877E-5	650.59026	12735.401	35.5252	6578.832
450.0	0.85176	0.14824	1.74078	14.23616	-5.97383	32.86617	109.78446	0.16138	6.1965	18.58763	31.47016	6.90721	0.34552	2.73824	77959.33967	1.28897	4.52738E-5	652.91084	12560.025	35.0752	6603.108
445.0	0.85572	0.14428	1.7418	14.22757	-6.03058	32.75837	109.6192	0.16051	6.23025	19.04472	31.58315	7.08245	0.3445	2.79616	91719.7362	1.25354	3.82155E-5	655.23098	12386.716	34.6618	6625.694
440.0	0.85949	0.14051	1.74281	14.21913	-6.08635	32.65672	109.4373	0.15965	6.26352	19.49134	31.69483	7.25387	0.34351	2.85607	108016.8989	1.21871	3.22237E-5	657.5507	12215.309	34.2814	6646.747
435.0	0.86308	0.13692	1.74381	14.21076	-6.14159	32.55725	109.24126	0.15882	6.29644	19.92845	31.80497	7.42183	0.34256	2.91807	127356.0329	1.18445	2.71389E-5	659.87038	12045.662	33.9294	6666.407
430.0	0.86649	0.13351	1.74479	14.20253	-6.19596	32.46338	109.03118	0.158	6.32902	20.35605	31.91383	7.58632	0.34163	2.98225	150345.3967	1.15078	2.28268E-5	662.1898	11877.644	33.6036	6684.799
427.64	0.86805	0.13195	1.74525	14.19868	-6.22138	32.42048	108.92831	0.15762	6.34435	20.55467	31.96474	7.66278	0.3412	3.01333	162670.1224	1.13508	2.10265E-5	663.28463	11798.891	 	6693.05
427.64	0.86805	0.13195	1.74525	14.19868	-6.22138	32.42047	108.92831	0.15762	6.34435	20.55467	31.96474	7.66278	0.3412	3.01333	162670.1224	1.13508	2.10265E-5	663.28463	11798.891	 	6693.05
425.0	0.86974	0.13026	1.74577	14.1944	-6.2497	32.37294	108.81031	0.1572	6.36144	20.77457	32.0213	7.74749	0.34073	3.04871	177724.5486	1.11768	1.91729E-5	664.5093	11711.165	33.2958	6702.008
420.0	0.87286	0.12714	1.74673	14.18636	-6.30277	32.28644	108.57532	0.15641	6.39349	21.186	32.12752	7.90609	0.33985	3.11757	210414.5436	1.08517	1.60782E-5	666.82873	11546.044	33.0242	6718.211
419.99	0.87286	0.12714	1.74673	14.18633	-6.30295	32.28546	108.57477	0.15641	6.39354	21.18629	32.12767	7.90621	0.33985	3.1177	210472.3264	1.08511	1.60736E-5	666.83287	11545.754	 	6718.238
415.0	0.91528	0.0847202	1.74996	14.15763	-6.49253	30.90312	109.32695	0.15421	6.48452	25.42735	32.29408	9.53874	0.33285	3.2332	294798.7278	1.03881	1.13932E-5	668.81231	11132.41	82.7268	6983.275
410.0	0.93855	0.061446	1.75195	14.13912	-6.61477	30.1317	109.6264	0.15267	6.54987	28.0676	32.4326	10.56094	0.32884	3.35172	380160.046	0.9948	8.77074E-6	670.83021	10840.862	58.3096	7126.602
405.0	0.95301	0.0469907	1.75339	14.12531	-6.70602	29.64124	109.7071	0.15145	6.60302	29.85964	32.55693	11.25743	0.32622	3.47322	473350.9856	0.95297	6.99245E-6	672.86915	10605.198	47.1328	7214.388
400.0	0.96277	0.0372337	1.75453	14.11398	-6.78084	29.29953	109.67592	0.15037	6.65018	31.1633	32.67287	11.76564	0.32434	3.59794	579468.472	0.91316	5.66981E-6	674.92249	10399.241	41.1914	7272.806
395.0	0.96975	0.0302496	1.75549	14.10411	-6.84598	29.04511	109.57501	0.14939	6.69378	32.16419	32.78325	12.15681	0.32289	3.72611	703189.7662	0.87519	4.63754E-6	676.98659	10210.825	37.6832	7314.02
392.03	0.97299	0.027014	1.75601	14.09875	-6.88144	28.92298	109.49119	0.14884	6.71848	32.65566	32.84672	12.34925	0.32217	3.80384	786792.9419	0.85351	4.12637E-6	678.21458	10104.802	 	7332.905
390.0	0.97618	0.0238178	1.75639	14.09467	-6.90837	28.81169	109.46044	0.14843	6.7372	33.11672	32.89322	12.53004	0.32149	3.85359	853154.1761	0.83991	3.79377E-6	679.05362	10025.778	37.0094	7352.196
385.0	0.98232	0.0176827	1.75724	14.08549	-6.96901	28.58965	109.34046	0.14747	6.78094	34.04692	33.00383	12.8954	0.32012	3.9783	1035988.951	0.80745	3.10068E-6	681.12325	9842.997	36.5562	7388.435
380.0	0.98662	0.0133778	1.758	14.07719	-7.0238	28.42225	109.17062	0.14658	6.82224	34.75762	33.1099	13.17521	0.31905	4.10654	1252647.861	0.77629	2.5449E-6	683.20185	9672.039	34.1916	7413.175
375.0	0.98981	0.0101906	1.7587	14.06945	-7.07494	28.28854	108.97023	0.14572	6.86225	35.33143	33.21261	13.40163	0.31818	4.23844	1512358.744	0.74637	2.09174E-6	685.28741	9508.355	32.7368	7430.964
370.0	0.99227	0.00773027	1.75936	14.06207	-7.12368	28.17677	108.74953	0.14489	6.90159	35.81486	33.31266	13.5928	0.31742	4.37416	1826000.369	0.71764	1.71909E-6	687.37856	9349.462	31.7786	7444.28
365.0	0.99424	0.00576103	1.76001	14.05495	-7.17072	28.08011	108.51497	0.14408	6.94066	36.23662	33.41051	13.75992	0.31675	4.51395	2206887.904	0.69001	1.41133E-6	689.47423	9193.887	31.115	7454.59
361.57	0.99537	0.00462865	1.76044	14.05018	-7.20221	28.02066	108.34789	0.14353	6.96742	36.4981	33.47646	13.8637	0.31632	4.61231	2515306.869	0.67166	1.23162E-6	690.91399	9088.669	 	7460.347
361.57	0.99537	0.00462865	1.76044	14.05018	-7.20221	28.02066	108.34789	0.14353	6.96742	36.4981	33.47646	13.8637	0.31632	4.61231	2515306.869	0.67166	1.23162E-6	690.91399	9088.669	 	7460.347
360.0	0.99852	0.00147863	1.76061	14.04719	-7.22192	27.93461	108.33773	0.14318	6.98405	36.92458	33.51355	14.03187	0.31574	4.67519	2694515.832	0.66099	1.14687E-6	691.47654	9026.34	33.5094	7477.186
359.0	1.0	0.0	1.76071	14.04548	-7.23328	27.89241	108.31772	0.14298	6.99377	37.13427	33.5358	14.11467	0.31545	 	2810392.456	 	1.09785E-6	 	8989.682	 	7484.986
350.0	1.0	0.0	1.76214	14.03407	-7.30858	27.80926	107.78954	0.14164	7.06021	37.43822	33.69471	14.23705	0.31482	 	3957302.883	 	7.68564E-7	 	8699.587	32.6753	 
345.0	1.0	0.0	1.76293	14.02777	-7.35023	27.76308	107.49614	0.14089	7.09795	37.60573	33.78135	14.30458	0.31447	 	4806320.338	 	6.27723E-7	 	8556.677	28.582	 
340.0	1.0	0.0	1.76372	14.02148	-7.39175	27.71691	107.20271	0.14013	7.1363	37.77231	33.86687	14.37178	0.31411	 	5856024.049	 	5.11035E-7	 	8414.047	28.526	 
335.0	1.0	0.0	1.76451	14.01521	-7.43314	27.67074	106.90922	0.13937	7.17527	37.93796	33.95125	14.43867	0.31376	 	7158197.295	 	4.14662E-7	 	8271.666	28.4762	 
330.0	1.0	0.0	1.7653	14.00897	-7.47441	27.62457	106.61569	0.1386	7.21489	38.10269	34.03451	14.50524	0.31341	 	8779104.805	 	3.35322E-7	 	8129.544	28.4244	 
325.0	1.0	0.0	1.76608	14.00274	-7.51555	27.5784	106.32212	0.13783	7.25517	38.2665	34.11665	14.57149	0.31306	 	1.080385671E7	 	2.7022E-7	 	7987.69	28.3708	 
320.0	1.0	0.0	1.76686	13.99653	-7.55657	27.53223	106.02849	0.13706	7.29612	38.42938	34.19769	14.63742	0.31271	 	1.334218283E7	 	2.16982E-7	 	7846.105	28.317	 
315.0	1.0	0.0	1.76765	13.99033	-7.59747	27.48606	105.73482	0.13628	7.33777	38.59133	34.27762	14.70304	0.31236	 	1.653610431E7	 	1.73597E-7	 	7704.789	28.2632	 
310.0	1.0	0.0	1.76843	13.98416	-7.63824	27.4399	105.4411	0.1355	7.38012	38.75236	34.35645	14.76834	0.31201	 	2.057016823E7	 	1.38366E-7	 	7563.742	28.2094	 
305.0	1.0	0.0	1.7692	13.97801	-7.67888	27.39374	105.14733	0.13471	7.42321	38.91246	34.4342	14.83331	0.31166	 	2.568516009E7	 	1.09861E-7	 	7422.963	28.1558	 
300.0	1.0	0.0	1.76998	13.97187	-7.7194	27.34758	104.8535	0.13392	7.46704	39.07164	34.51086	14.89797	0.31131	 	3.219655601E7	 	8.68852E-8	 	7282.451	28.1024	 
295.0	1.0	0.0	1.77076	13.96576	-7.75979	27.30142	104.55963	0.13313	7.51164	39.2299	34.58644	14.96231	0.31096	 	4.051946431E7	 	6.84362E-8	 	7142.206	28.049	 
290.0	1.0	0.0	1.77153	13.95966	-7.80006	27.25527	104.2657	0.13233	7.55703	39.38722	34.66095	15.02633	0.31061	 	5.120249332E7	 	5.36809E-8	 	7002.227	27.9958	 
285.0	1.0	0.0	1.7723	13.95358	-7.8402	27.20911	103.97172	0.13152	7.60323	39.54363	34.73439	15.09003	0.31026	 	6.497395666E7	 	4.19274E-8	 	6862.514	27.9426	 
280.0	1.0	0.0	1.77307	13.94752	-7.88022	27.16296	103.67769	0.13071	7.65026	39.69911	34.80677	15.1534	0.30991	 	8.280521417E7	 	3.26041E-8	 	6723.066	27.8896	 
275.0	1.0	0.0	1.77384	13.94148	-7.92012	27.11681	103.3836	0.1299	7.69815	39.85366	34.8781	15.21646	0.30956	 	1.059979332E8	 	2.524E-8	 	6583.883	27.8366	 
270.0	1.0	0.0	1.77461	13.93546	-7.95988	27.07066	103.08945	0.12908	7.74691	40.00729	34.94838	15.2792	0.30921	 	1.36304914E8	 	1.94489E-8	 	6444.964	27.7838	 
265.0	1.0	0.0	1.77537	13.92946	-7.99953	27.02452	102.79525	0.12826	7.79657	40.16	35.01762	15.34161	0.30886	 	1.760982601E8	 	1.49154E-8	 	6306.31	27.7308	 
260.0	1.0	0.0	1.77613	13.92348	-8.03904	26.97837	102.50099	0.12743	7.84716	40.31178	35.08583	15.40371	0.30851	 	2.286046979E8	 	1.13828E-8	 	6167.919	27.6782	 
255.0	1.0	0.0	1.7769	13.91751	-8.07844	26.93223	102.20667	0.1266	7.8987	40.46263	35.153	15.46548	0.30816	 	2.982366624E8	 	8.64337E-9	 	6029.791	27.6256	 
250.0	1.0	0.0	1.77765	13.91157	-8.11771	26.88609	101.91229	0.12577	7.95123	40.61256	35.21915	15.52693	0.30781	 	3.910607499E8	 	6.52933E-9	 	5891.928	27.5726	 
245.0	1.0	0.0	1.77841	13.90564	-8.15685	26.83995	101.61784	0.12493	8.00476	40.76157	35.28428	15.58806	0.30746	 	5.154643633E8	 	4.90618E-9	 	5754.327	27.5202	 
240.0	1.0	0.0	1.77917	13.89973	-8.19587	26.79381	101.32334	0.12408	8.05933	40.90965	35.34839	15.64887	0.30711	 	6.831100453E8	 	3.6664E-9	 	5616.99	27.4674	 
235.0	1.0	0.0	1.77992	13.89384	-8.23476	26.74768	101.02877	0.12323	8.11497	41.0568	35.4115	15.70935	0.30676	 	9.103099939E8	 	2.72452E-9	 	5479.916	27.4148	 
230.0	1.0	0.0	1.78067	13.88797	-8.27353	26.70155	100.73414	0.12237	8.17171	41.20303	35.47361	15.76951	0.30641	 	1.220018198E9	 	2.01288E-9	 	5343.105	27.3622	 
225.0	1.0	0.0	1.78142	13.88212	-8.31217	26.65541	100.43944	0.12151	8.22959	41.34834	35.53472	15.82935	0.30607	 	1.644736357E9	 	1.47826E-9	 	5206.559	27.3092	 
