T (C)	Fraction solid (wt)-TOTAL	Fraction liquid (wt)-LIQUID	Density (g/(cm)^3)-TOTAL	Molar volume (cm^3)-TOTAL	Volume change (%)-  	Average expansion coeff. (10e-6 1/K)-  	Thermal conductivity (W/(m*K))-TOTAL	Electrical resistivity (10e-6 Ohm*m)-TOTAL	Electrical conductivity (10e6 1/(Ohm*m))-TOTAL	Young's modulus (GPa)-TOTAL	Bulk modulus (GPa)-TOTAL	Shear modulus(GPa)-TOTAL	Poisson's ratio-TOTAL	Liquid viscosity (mPa s)-  	Total viscosity (mPa s)-  	Liquid diffusivity (10e-9 (m^2)/s)-  	Total diffusivity (10e-9 (m^2)/s)-  	Surface Tension (mN/m)-  	Enthalpy (J/mole)-TOTAL	Specific heat (J/(mole K))-TOTAL	Latent heat (J/mole)-TOTAL
700.0	0.0	1.0	1.6568	15.10841	0.0	53.5139	79.36856	0.3004	3.32891	0.0	25.67226	0.0	0.5	1.25369	1.25369	3.78857	3.78857	548.0974	27156.598	 	0.0
695.0	0.0	1.0	1.65811	15.09645	-0.079157	53.47677	79.03201	0.30013	3.33192	0.0	25.74268	0.0	0.5	1.26832	1.26832	3.72565	3.72565	549.82141	26985.14	34.2916	0.0
690.0	0.0	1.0	1.65942	15.08454	-0.158	53.44084	78.69545	0.29985	3.33495	0.0	25.8131	0.0	0.5	1.28326	1.28326	3.66324	3.66324	551.54546	26813.662	34.2956	0.0
685.0	0.0	1.0	1.66072	15.07268	-0.23652	53.40615	78.35889	0.29958	3.33802	0.0	25.88351	0.0	0.5	1.29854	1.29854	3.60133	3.60133	553.26955	26642.164	34.2996	0.0
680.0	0.0	1.0	1.66203	15.06086	-0.31472	53.37272	78.02233	0.2993	3.34112	0.0	25.95393	0.0	0.5	1.31417	1.31417	3.53994	3.53994	554.99368	26470.645	34.3038	0.0
675.0	0.0	1.0	1.66333	15.0491	-0.39261	53.34059	77.68577	0.29902	3.34425	0.0	26.02435	0.0	0.5	1.33015	1.33015	3.47906	3.47906	556.71786	26299.107	34.3076	0.0
674.81	0.0	1.0	1.66338	15.04865	-0.39559	53.33938	77.67286	0.29901	3.34437	0.0	26.02705	0.0	0.5	1.33078	1.33078	3.47673	3.47673	556.78404	26292.522	34.3112	0.0010
670.0	3.8E-4	0.99962	1.66466	15.037	-0.47268	53.29542	77.35496	0.29872	3.34766	6.68067E-14	26.09332	2.22695E-14	0.49996	1.34605	1.34605	3.41983	3.41983	558.42786	26118.316	36.2319	9.232
665.0	7.6E-4	0.99924	1.66598	15.0251	-0.55143	53.25716	77.02487	0.29841	3.35114	1.07046E-12	26.16259	3.56841E-13	0.49992	1.36232	1.36232	3.36109	3.36109	560.1379	25937.522	36.1588	18.447
660.0	0.00113	0.99887	1.66731	15.01309	-0.6309	53.21414	76.69369	0.2981	3.35461	5.14687E-12	26.23168	1.71577E-12	0.49987	1.37898	1.37898	3.30279	3.30279	561.84859	25757.089	36.0866	27.282
655.0	0.00148	0.99852	1.66862	15.00128	-0.70908	53.17803	76.36291	0.29778	3.35814	1.52487E-11	26.30112	5.08346E-12	0.49983	1.39605	1.39605	3.24493	3.24493	563.55986	25577.017	36.0144	35.747
650.0	0.00181	0.99819	1.66994	14.98951	-0.787	53.14282	76.0318	0.29747	3.36168	3.47205E-11	26.37059	1.15751E-11	0.4998	1.41354	1.41354	3.18751	3.18751	565.27171	25397.305	35.9424	43.855
645.0	0.00213	0.99787	1.67125	14.97776	-0.86476	53.10806	75.70026	0.29715	3.36525	6.69628E-11	26.44012	2.23245E-11	0.49976	1.43146	1.43146	3.13055	3.13055	566.98331	25218.25	35.811	51.616
640.0	0.00244	0.99756	1.67255	14.96604	-0.94237	53.07358	75.36832	0.29684	3.36884	1.15244E-10	26.50966	3.84219E-11	0.49972	1.44983	1.44983	3.07405	3.07405	568.69633	25040.174	35.6152	59.041
635.0	0.00273	0.99727	1.67385	14.95449	-1.01878	53.04584	75.03675	0.29652	3.37249	1.82459E-10	26.5795	6.0832E-11	0.49969	1.46867	1.46867	3.01802	3.01802	570.40985	24863.059	35.423	66.142
630.0	0.00301	0.99699	1.67514	14.94295	-1.09515	53.01783	74.70472	0.2962	3.37615	2.71035E-10	26.6493	9.03654E-11	0.49966	1.48798	1.48798	2.96245	2.96245	572.12388	24686.885	35.2348	72.928
625.0	0.00327	0.99673	1.67643	14.93145	-1.1713	52.99076	74.37234	0.29587	3.37984	3.83001E-10	26.71919	1.27698E-10	0.49963	1.50778	1.50778	2.90735	2.90735	573.8384	24511.631	35.0508	79.409
620.0	0.00353	0.99647	1.67772	14.91994	-1.24745	52.96322	74.0395	0.29555	3.38355	5.19688E-10	26.78902	1.73275E-10	0.4996	1.52809	1.52809	2.85274	2.85274	575.55339	24337.28	34.8702	85.596
615.0	0.00377	0.99623	1.679	14.9086	-1.32255	52.94178	73.70695	0.29522	3.38732	6.82067E-10	26.85908	2.2742E-10	0.49957	1.54893	1.54893	2.79861	2.79861	577.26882	24163.811	34.6938	91.499
610.0	0.0040	0.996	1.68028	14.89725	-1.39769	52.91973	73.3739	0.29489	3.3911	8.70359E-10	26.9291	2.90207E-10	0.49955	1.57031	1.57031	2.74496	2.74496	578.98469	23991.205	34.5212	97.127
605.0	0.00422	0.99578	1.68155	14.88606	-1.47175	52.90419	73.04118	0.29456	3.39495	1.08465E-9	26.99937	3.61664E-10	0.49952	1.59225	1.59225	2.69181	2.69181	580.70097	23819.445	34.352	102.488
603.19	0.00429	0.99571	1.68201	14.88193	-1.49904	52.89541	72.92026	0.29444	3.39633	1.16846E-9	27.02469	3.89614E-10	0.49951	1.60033	1.60033	2.67269	2.67269	581.32245	23757.469	 	104.364
600.0	0.0844005	0.9156	1.68771	14.83157	-1.8324	51.04691	76.12775	0.281	3.55867	0.00115724	27.06866	3.89399E-4	0.48592	1.61694	2.01661	2.63562	2.11326	582.81519	22993.368	165.215	762.738
595.0	0.18817	0.81183	1.69529	14.76534	-2.27074	48.65354	80.3765	0.26463	3.77892	0.0328601	27.26	0.011191	0.46816	1.64355	8.0669	2.5781	0.52526	585.15321	21981.134	202.447	1609.708
590.0	0.27127	0.72873	1.70157	14.71088	-2.63123	46.72686	83.95012	0.2519	3.9698	0.14894	27.44198	0.0512268	0.45376	1.67085	31.13455	2.52136	0.13531	587.48911	21143.6	167.507	2282.532
585.0	0.33914	0.66086	1.70687	14.66512	-2.93409	45.14596	87.02841	0.24158	4.13935	0.37501	27.61677	0.13004	0.44188	1.69886	80.69242	2.46542	0.051906	589.82282	20434.634	141.793	2827.333
580.0	0.39551	0.60449	1.71143	14.62599	-3.19309	43.82857	89.71087	0.23299	4.29194	0.70949	27.78575	0.24774	0.43192	1.72758	163.13999	2.41031	0.0255242	592.15433	19822.726	122.382	3275.614
575.0	0.44297	0.55703	1.71541	14.59206	-3.41769	42.71829	92.05952	0.22572	4.43027	1.13732	27.95	0.39949	0.42345	1.75703	283.11453	2.35602	0.0146217	594.48365	19285.682	107.409	3649.559
570.0	0.48342	0.51658	1.71893	14.56206	-3.61625	41.76417	94.11678	0.21948	4.55613	1.63922	28.10998	0.57875	0.41616	1.78722	444.66936	2.30257	0.00925453	596.81089	18807.46	95.6444	3965.204
565.0	0.51828	0.48172	1.72208	14.53529	-3.79338	40.93896	95.87646	0.21418	4.669	2.19635	28.26622	0.77894	0.40982	1.81818	651.97774	2.24994	0.00627445	599.1361	18376.201	86.2518	4234.399
560.0	0.54859	0.45141	1.72493	14.51122	-3.95275	40.22102	97.4515	0.20946	4.77419	2.79227	28.41942	0.99422	0.40426	1.84993	909.89274	2.19814	0.0044691	601.45931	17982.967	78.6468	4466.076
555.0	0.57516	0.42484	1.72753	14.48916	-4.09871	39.58298	98.82693	0.20531	4.8708	3.4138	28.56937	1.2198	0.39933	1.88248	1224.36204	2.14716	0.00330131	603.78071	17620.907	72.412	4667.077
550.0	0.59864	0.40136	1.72993	14.469	-4.23215	39.02096	100.02704	0.20162	4.95989	4.05013	28.717	1.45174	0.39493	1.91588	1602.52341	2.097	0.00250704	606.10023	17284.69	67.2434	4842.726
545.0	0.61951	0.38049	1.73215	14.45034	-4.3557	38.51828	101.07172	0.19832	5.04232	4.69317	28.86214	1.68701	0.39097	1.95014	2052.95208	2.04764	0.0019451	608.41803	16970.112	62.9156	4997.22
540.0	0.6382	0.3618	1.73422	14.43288	-4.47127	38.06317	101.97865	0.19536	5.11885	5.33676	29.00483	1.9233	0.38739	1.98531	2585.9601	1.99907	0.00153474	610.73423	16673.816	59.2592	5133.908
535.0	0.65499	0.34501	1.73616	14.41657	-4.57916	37.65475	102.76469	0.19267	5.19022	5.97627	29.14566	2.15884	0.38414	2.02142	3214.02384	1.9513	0.00122724	613.04877	16393.098	56.1436	5255.489
530.0	0.67019	0.32981	1.738	14.4012	-4.68091	37.28321	103.44333	0.19022	5.25702	6.60844	29.28433	2.39234	0.38117	2.05849	3951.86844	1.9043	9.9193E-4	615.36178	16125.751	53.4694	5364.161
525.0	0.684	0.316	1.73974	14.38662	-4.77745	36.94268	104.02642	0.18798	5.31977	7.23083	29.42112	2.62285	0.37843	2.09658	4816.89701	1.85806	8.08731E-4	617.67336	15869.963	51.1576	5461.73
522.2	0.69118	0.30882	1.74068	14.37875	-4.8295	36.76401	104.31688	0.1868	5.35341	7.57398	29.49692	2.75019	0.37699	2.11836	5364.12204	1.8325	7.23679E-4	618.96775	15731.249	 	5512.005
522.2	0.69118	0.30882	1.74068	14.37875	-4.8295	36.76401	104.31688	0.1868	5.35341	7.57398	29.49692	2.75019	0.37699	2.11836	5364.12204	1.8325	7.23679E-4	618.96776	15731.251	 	5512.003
520.06	0.69647	0.30353	1.74138	14.37287	-4.86847	36.63194	104.52566	0.18592	5.37858	7.83556	29.55421	2.84738	0.37593	2.13518	5817.05048	1.81318	6.65538E-4	619.95458	15626.669	 	5549.208
520.0	0.69663	0.30337	1.7414	14.37271	-4.86948	36.629	104.53258	0.1859	5.37936	7.84385	29.55601	2.85046	0.37589	2.13566	5831.26795	1.81264	6.63864E-4	619.9833	15623.491	49.2944	5550.433
515.0	0.70926	0.29074	1.74303	14.35908	-4.9597	36.32251	105.00359	0.1839	5.43787	8.49444	29.69545	3.09258	0.37336	2.17507	7059.06022	1.76857	5.4494E-4	622.30097	15372.293	50.2396	5644.304
510.0	0.72076	0.27924	1.74458	14.34612	-5.04548	36.0435	105.39685	0.18205	5.49309	9.12868	29.83263	3.32916	0.37102	2.21563	8495.25233	1.72518	4.49941E-4	624.61725	15131.18	48.2226	5728.526
505.0	0.73128	0.26872	1.74607	14.33371	-5.12765	35.78645	105.7209	0.18033	5.54538	9.74605	29.96758	3.55995	0.36885	2.25738	10174.96663	1.68246	3.73265E-4	626.9322	14898.833	46.4694	5804.413
500.0	0.74095	0.25905	1.7475	14.32171	-5.20707	35.54543	105.98319	0.17873	5.59509	10.34674	30.10021	3.78496	0.36682	2.30039	12139.94743	1.6404	3.10838E-4	629.24594	14674.154	44.9358	5873.056
495.0	0.74987	0.25013	1.74889	14.3102	-5.28322	35.32501	106.19217	0.17722	5.64261	10.93122	30.231	4.00432	0.36493	2.34468	14441.12735	1.599	2.59616E-4	631.5583	14456.225	43.5858	5935.366
490.0	0.75813	0.24187	1.75022	14.29902	-5.35726	35.11654	106.35249	0.1758	5.68816	11.50039	30.35963	4.21831	0.36315	2.39032	17137.46811	1.55826	2.17345E-4	633.86952	14244.271	42.3908	5992.114
485.0	0.76579	0.23421	1.75152	14.28822	-5.42871	34.92438	106.46896	0.17446	5.73194	12.05327	30.48662	4.42654	0.36148	2.43736	20298.08562	1.51818	1.823E-4	636.17944	14037.632	41.3278	6043.952
480.0	0.77293	0.22707	1.75279	14.27773	-5.49817	34.74416	106.54721	0.17318	5.77424	12.59225	30.61181	4.62986	0.3599	2.48584	24009.59997	1.47875	1.53103E-4	638.48821	13835.746	40.3772	6091.438
475.0	0.77959	0.22041	1.75402	14.26748	-5.56599	34.5734	106.5902	0.17196	5.81517	13.11699	30.73515	4.82812	0.3584	2.53585	28370.90374	1.43997	1.28707E-4	640.79592	13638.126	39.524	6135.053
470.0	0.78582	0.21418	1.75522	14.2575	-5.63203	34.41364	106.60143	0.1708	5.85491	13.62822	30.85692	5.02156	0.35697	2.58744	33502.19532	1.40182	1.08265E-4	643.10251	13444.352	38.7548	6175.209
465.0	0.79168	0.20832	1.7564	14.24775	-5.69661	34.26238	106.58381	0.16968	5.8936	14.12642	30.97709	5.21035	0.35561	2.64067	39546.81021	1.36432	9.11003E-5	645.4081	13254.061	38.0582	6212.267
460.0	0.79719	0.20281	1.75755	14.23817	-5.76001	34.11776	106.53977	0.1686	5.93134	14.61268	31.09559	5.39487	0.35431	2.69563	46677.76483	1.32745	7.66601E-5	647.7128	13066.934	37.4254	6246.54
455.0	0.80238	0.19762	1.75868	14.22881	-5.82196	33.98217	106.47254	0.16755	5.9683	15.08771	31.2126	5.57537	0.35307	2.75239	55104.61753	1.29121	6.4494E-5	650.01651	12882.691	36.8486	6278.302
450.0	0.80728	0.19272	1.75979	14.21961	-5.88282	33.85291	106.38342	0.16654	6.00454	15.55177	31.32815	5.75193	0.35187	2.81102	65075.64235	1.2556	5.42371E-5	652.31939	12701.085	36.3212	6307.794
445.0	0.81193	0.18807	1.76088	14.21058	-5.94261	33.72996	106.27433	0.16556	6.04014	16.00578	31.44222	5.92488	0.35073	2.87162	76894.36544	1.2206	4.55835E-5	654.62146	12521.9	35.837	6335.228
440.0	0.81633	0.18367	1.76196	14.20169	-6.00143	33.61274	106.14631	0.1646	6.07516	16.44932	31.55484	6.09406	0.34962	2.93428	90921.17654	1.18622	3.82827E-5	656.92277	12344.943	35.3914	6360.792
435.0	0.82053	0.17947	1.76302	14.19297	-6.0592	33.5021	106.00196	0.16367	6.10974	16.88426	31.66616	6.26014	0.34855	2.99907	107607.3084	1.15246	3.21196E-5	659.22333	12170.041	34.9804	6384.653
430.0	0.82451	0.17549	1.76406	14.18434	-6.11627	33.39504	105.84131	0.16276	6.14386	17.30999	31.77602	6.42291	0.34752	3.06613	127482.5111	1.11929	2.69206E-5	661.52332	11997.043	34.5996	6406.96
425.0	0.82831	0.17169	1.7651	14.17584	-6.17256	33.29256	105.66644	0.16187	6.17763	17.7279	31.88457	6.58287	0.34652	3.13554	151209.9797	1.08673	2.25349E-5	663.82275	11825.809	34.2468	6427.845
420.0	0.83194	0.16806	1.76611	14.16745	-6.22809	33.19464	105.47695	0.161	6.21104	18.13744	31.99176	6.7398	0.34555	3.20742	179579.4808	1.05477	1.8839E-5	666.12163	11656.219	33.918	6447.427
415.13	0.83532	0.16468	1.7671	14.15939	-6.2814	33.10456	105.28155	0.16017	6.24344	18.53023	32.09509	6.89048	0.34463	3.27999	212656.9818	1.02418	1.57968E-5	668.36236	11492.36	 	6465.362
415.13	0.83532	0.16468	1.7671	14.15939	-6.2814	33.10456	105.28155	0.16017	6.24344	18.53023	32.09509	6.89048	0.34463	3.27999	212656.9818	1.02418	1.57968E-5	668.36236	11492.359	 	6465.363
415.0	0.83541	0.16459	1.76712	14.15917	-6.28289	33.10105	105.27578	0.16015	6.24424	18.54011	32.09766	6.89427	0.3446	3.28189	213583.3588	1.0234	1.57254E-5	668.42006	11488.164	33.611	6465.809
410.0	0.83874	0.16126	1.76811	14.15099	-6.33704	33.01134	105.06322	0.15931	6.27724	18.9362	32.2023	7.04638	0.34368	3.35908	254424.2826	0.99262	1.31052E-5	670.71809	11321.523	33.3282	6483.118
408.27	0.83985	0.16015	1.76846	14.14818	-6.35564	32.98122	104.98715	0.15902	6.28863	19.07134	32.23827	7.09831	0.34337	3.38646	270413.301	0.9821	1.22991E-5	671.514	11264.141	 	6488.855
405.0	0.8618	0.1382	1.77029	14.13242	-6.45994	32.25078	105.34779	0.15771	6.34065	21.05132	32.33781	7.8569	0.33967	3.46466	331313.3288	0.95533	9.99019E-6	672.8484	11029.57	58.3906	6626.072
400.0	0.88658	0.11342	1.7725	14.11309	-6.58787	31.4204	105.69702	0.15603	6.40892	23.49709	32.47716	8.79779	0.3354	3.58659	434261.343	0.91605	7.56567E-6	674.90141	10727.671	60.3798	6779.304
395.0	0.90426	0.0957445	1.77424	14.09757	-6.6906	30.81925	105.86966	0.15462	6.46743	25.39862	32.60503	9.53223	0.33225	3.71147	552252.7527	0.87865	5.90504E-6	676.96528	10471.534	51.2274	6887.099
390.0	0.91742	0.0825823	1.77569	14.08448	-6.77723	30.36456	105.93007	0.15338	6.51991	26.91872	32.72508	10.12121	0.32982	3.8395	690156.3678	0.84299	4.68976E-6	679.03746	10244.268	45.4532	6966.348
385.0	0.92757	0.0724346	1.77695	14.07299	-6.85328	30.00576	105.91419	0.15224	6.56845	28.1648	32.83929	10.60534	0.32786	3.97091	853530.4593	0.80895	3.76351E-6	681.11663	10036.294	41.5948	7026.624
380.0	0.93561	0.0643924	1.77807	14.06263	-6.92186	29.71473	105.83838	0.15119	6.614	29.20878	32.94907	11.0119	0.32624	4.10598	1048954.471	0.77639	3.03909E-6	683.20148	9841.815	38.8958	7073.721
379.61	0.93616	0.063841	1.77815	14.06186	-6.92698	29.69421	105.83035	0.15112	6.61748	29.28283	32.9575	11.04077	0.32612	4.11675	1065840.741	0.7739	2.98914E-6	683.36542	9827.046	 	7076.931
375.0	0.94455	0.0554457	1.77918	14.05216	-6.99114	29.40789	105.79282	0.1501	6.66215	30.37866	33.06315	11.46883	0.3244	4.23844	1295560.703	0.74637	2.44177E-6	685.28741	9642.293	39.9044	7126.172
370.0	0.9517	0.0482978	1.78019	14.04261	-7.05441	29.15655	105.7	0.14907	6.70806	31.36333	33.17334	11.85432	0.32287	4.37416	1592871.591	0.71764	1.97069E-6	687.37856	9454.613	37.536	7167.092
365.0	0.95743	0.0425735	1.78112	14.03376	-7.11298	28.94881	105.56903	0.1481	6.75224	32.19532	33.27998	12.18072	0.32157	4.51395	1952910.209	0.69001	1.59488E-6	689.47423	9276.24	35.6746	7199.009
361.57	0.96072	0.0392834	1.78172	14.028	-7.15107	28.82569	105.46172	0.14745	6.78182	32.69606	33.35134	12.37751	0.32079	4.61231	2244053.765	0.67166	1.3805E-6	690.91399	9158.015	 	7216.948
361.57	0.96072	0.0392834	1.78172	14.028	-7.15107	28.82569	105.46172	0.14745	6.78182	32.69606	33.35134	12.37751	0.32079	4.61231	2244053.765	0.67166	1.3805E-6	690.91399	9158.015	 	7216.948
360.0	0.96988	0.0301234	1.78218	14.02297	-7.1844	28.59327	105.60194	0.14689	6.80768	33.76733	33.4024	12.79749	0.3193	4.67519	2454526.408	0.66099	1.259E-6	691.47654	9061.701	42.9078	7267.394
359.0	0.97418	0.0258227	1.78242	14.02029	-7.20212	28.48254	105.65377	0.14659	6.82176	34.28582	33.43128	13.00106	0.31858	4.71444	2584944.745	0.65445	1.1936E-6	691.83933	9009.176	 	7290.82
359.0	0.97418	0.0258227	1.78242	14.02029	-7.20212	28.48254	105.65377	0.14659	6.82176	34.28582	33.43128	13.00106	0.31858	4.71444	2584944.745	0.65445	1.1936E-6	691.83933	9009.176	 	7290.82
355.0	0.98706	0.012936	1.78321	14.01113	-7.26274	28.14946	105.76139	0.14551	6.87223	35.88826	33.53743	13.63156	0.31637	4.86831	3136536.864	0.62976	9.77462E-7	693.33108	8824.387	47.4628	7358.853
350.0	0.99533	0.004673	1.78395	14.00233	-7.32097	27.92057	105.69347	0.14445	6.92292	37.01289	33.65101	14.07571	0.31478	5.05538	3899787.3	0.60162	7.79899E-7	695.25266	8637.682	37.341	7399.999
345.0	1.0	0.0	1.7846	13.99474	-7.37122	27.77665	105.53119	0.14351	6.9682	37.72944	33.75627	14.35981	0.31372	 	4806320.338	 	6.27723E-7	 	8471.235	33.2894	7421.181
340.0	1.0	0.0	1.7854	13.98847	-7.41274	27.73052	105.2352	0.14275	7.00532	37.89759	33.84328	14.42764	0.31337	 	5856024.049	 	5.11035E-7	 	8310.104	32.2262	 
335.0	1.0	0.0	1.78619	13.98221	-7.45414	27.68439	104.93916	0.14198	7.04305	38.06479	33.92915	14.49515	0.31302	 	7158197.295	 	4.14662E-7	 	8167.71	28.4788	 
330.0	1.0	0.0	1.78699	13.97598	-7.49542	27.63826	104.64307	0.14122	7.0814	38.23106	34.01389	14.56233	0.31267	 	8779104.805	 	3.35322E-7	 	8025.604	28.4212	 
325.0	1.0	0.0	1.78779	13.96976	-7.53657	27.59213	104.34691	0.14044	7.12038	38.39639	34.0975	14.6292	0.31232	 	1.080385671E7	 	2.7022E-7	 	7883.753	28.3702	 
320.0	1.0	0.0	1.78858	13.96356	-7.57759	27.54601	104.0507	0.13966	7.16002	38.56078	34.17999	14.69573	0.31197	 	1.334218283E7	 	2.16982E-7	 	7742.156	28.3194	 
315.0	1.0	0.0	1.78937	13.95738	-7.61849	27.49989	103.75443	0.13888	7.20033	38.72423	34.26137	14.76195	0.31162	 	1.653610431E7	 	1.73597E-7	 	7600.824	28.2664	 
310.0	1.0	0.0	1.79016	13.95122	-7.65927	27.45377	103.4581	0.1381	7.24133	38.88675	34.34164	14.82784	0.31128	 	2.057016823E7	 	1.38366E-7	 	7459.758	28.2132	 
305.0	1.0	0.0	1.79095	13.94508	-7.69992	27.40765	103.1617	0.13731	7.28303	39.04833	34.42082	14.89341	0.31093	 	2.568516009E7	 	1.09861E-7	 	7318.959	28.1598	 
300.0	1.0	0.0	1.79174	13.93896	-7.74044	27.36154	102.86525	0.13651	7.32545	39.20897	34.49889	14.95865	0.31058	 	3.219655601E7	 	8.68852E-8	 	7178.426	28.1066	 
295.0	1.0	0.0	1.79252	13.93285	-7.78084	27.31542	102.56873	0.13571	7.36862	39.36868	34.57588	15.02357	0.31023	 	4.051946431E7	 	6.84362E-8	 	7038.159	28.0534	 
290.0	1.0	0.0	1.79331	13.92677	-7.82111	27.26931	102.27214	0.13491	7.41254	39.52745	34.65179	15.08816	0.30988	 	5.120249332E7	 	5.36809E-8	 	6898.157	28.0004	 
285.0	1.0	0.0	1.79409	13.9207	-7.86126	27.22321	101.9755	0.1341	7.45725	39.68528	34.72663	15.15243	0.30953	 	6.497395666E7	 	4.19274E-8	 	6758.42	27.9474	 
280.0	1.0	0.0	1.79487	13.91465	-7.90129	27.1771	101.67878	0.13328	7.50276	39.84218	34.80039	15.21638	0.30919	 	8.280521417E7	 	3.26041E-8	 	6618.948	27.8944	 
275.0	1.0	0.0	1.79564	13.90863	-7.94119	27.131	101.382	0.13247	7.5491	39.99813	34.87309	15.28	0.30884	 	1.059979332E8	 	2.524E-8	 	6479.74	27.8416	 
270.0	1.0	0.0	1.79642	13.90262	-7.98096	27.08489	101.08515	0.13164	7.59629	40.15315	34.94473	15.34329	0.30849	 	1.36304914E8	 	1.94489E-8	 	6340.796	27.7888	 
265.0	1.0	0.0	1.79719	13.89663	-8.02061	27.0388	100.78823	0.13082	7.64435	40.30724	35.01532	15.40626	0.30814	 	1.760982601E8	 	1.49154E-8	 	6202.115	27.7362	 
260.0	1.0	0.0	1.79797	13.89066	-8.06014	26.9927	100.49124	0.12998	7.6933	40.46039	35.08486	15.4689	0.3078	 	2.286046979E8	 	1.13828E-8	 	6063.697	27.6836	 
255.0	1.0	0.0	1.79874	13.8847	-8.09954	26.9466	100.19417	0.12915	7.74318	40.6126	35.15337	15.53122	0.30745	 	2.982366624E8	 	8.64337E-9	 	5925.541	27.6312	 
250.0	1.0	0.0	1.79951	13.87877	-8.13881	26.90051	99.89704	0.1283	7.794	40.76387	35.22084	15.59321	0.3071	 	3.910607499E8	 	6.52933E-9	 	5787.649	27.5784	 
245.0	1.0	0.0	1.80027	13.87285	-8.17796	26.85442	99.59983	0.12746	7.8458	40.91421	35.28728	15.65487	0.30676	 	5.154643633E8	 	4.90618E-9	 	5650.019	27.526	 
240.0	1.0	0.0	1.80104	13.86696	-8.21699	26.80833	99.30254	0.1266	7.8986	41.06361	35.3527	15.7162	0.30641	 	6.831100453E8	 	3.6664E-9	 	5512.651	27.4736	 
235.0	1.0	0.0	1.8018	13.86108	-8.25589	26.76224	99.00518	0.12575	7.95243	41.21207	35.4171	15.77721	0.30606	 	9.103099939E8	 	2.72452E-9	 	5375.546	27.421	 
