T (C)	Fraction solid (wt)-TOTAL	Fraction liquid (wt)-LIQUID	Density (g/(cm)^3)-TOTAL	Molar volume (cm^3)-TOTAL	Volume change (%)-  	Average expansion coeff. (10e-6 1/K)-  	Thermal conductivity (W/(m*K))-TOTAL	Electrical resistivity (10e-6 Ohm*m)-TOTAL	Electrical conductivity (10e6 1/(Ohm*m))-TOTAL	Young's modulus (GPa)-TOTAL	Bulk modulus (GPa)-TOTAL	Shear modulus(GPa)-TOTAL	Poisson's ratio-TOTAL	Liquid viscosity (mPa s)-  	Total viscosity (mPa s)-  	Liquid diffusivity (10e-9 (m^2)/s)-  	Total diffusivity (10e-9 (m^2)/s)-  	Surface Tension (mN/m)-  	Enthalpy (J/mole)-TOTAL	Specific heat (J/(mole K))-TOTAL	Latent heat (J/mole)-TOTAL
1400.0	0.0	1.0	7.53375	7.9457	0.0	34.59571	32.36049	1.26674	0.78943	0.0	124.44754	0.0	0.5	7.05938	7.05938	1.15679	1.15679	1866.35639	42037.326	 	0.0
1395.0	0.0	1.0	7.53814	7.94107	-0.058269	34.55996	32.27454	1.26631	0.78969	0.0	124.5822	0.0	0.5	7.1363	7.1363	1.1409	1.1409	1869.8865	41837.955	39.8742	0.0
1390.0	0.0	1.0	7.54252	7.93645	-0.11637	34.52441	32.18858	1.26589	0.78996	0.0	124.71685	0.0	0.5	7.21453	7.21453	1.12515	1.12515	1873.42731	41639.026	39.7858	0.0
1385.0	0.0	1.0	7.5469	7.93185	-0.17431	34.48907	32.10263	1.26546	0.79022	0.0	124.8515	0.0	0.5	7.2941	7.2941	1.10953	1.10953	1876.97883	41440.534	39.6984	0.0
1380.0	0.0	1.0	7.55127	7.92726	-0.23209	34.45392	32.01667	1.26503	0.79049	0.0	124.98615	0.0	0.5	7.37503	7.37503	1.09405	1.09405	1880.54103	41242.477	39.6114	0.0
1375.81	0.0	1.0	7.55493	7.92342	-0.28043	34.42459	31.94458	1.26467	0.79072	0.0	125.0991	0.0	0.5	7.44399	7.44399	1.08116	1.08116	1883.53716	41076.686	39.53127	0.0
1375.0	0.02464	0.97536	7.56406	7.91384	-0.40097	34.10503	32.00843	1.26153	0.79269	3.61877E-5	125.91124	1.20862E-5	0.49707	7.4566	7.70898	1.0788	1.04349	1883.69792	40658.874	518.32572	385.977
1370.0	0.16501	0.83499	7.61689	7.859	-1.0912	32.27708	32.37581	1.24343	0.80422	0.0751051	130.52644	0.0253705	0.48016	7.5379	18.13384	1.06393	0.44226	1884.57742	38273.604	477.054	2574.051
1365.0	0.27779	0.72221	7.66033	7.8144	-1.65246	30.80211	32.66723	1.22859	0.81394	0.61883	134.27137	0.21101	0.46635	7.62238	84.68045	1.04894	0.0944185	1885.33018	36331.458	388.4292	4319.426
1360.0	0.36969	0.63031	7.69654	7.77761	-2.11544	29.59651	32.89972	1.21619	0.82224	1.9821	137.35536	0.68117	0.45492	7.71004	254.7377	1.03385	0.031291	1885.96379	34725.465	321.1986	5729.073
1355.0	0.4455	0.5545	7.72703	7.74688	-2.50223	28.60004	33.08499	1.20567	0.82941	4.25461	139.92905	1.47181	0.44537	7.80065	549.79586	1.01871	0.0144537	1886.4851	33378.084	269.4762	6880.526
1350.0	0.50875	0.49125	7.75307	7.72081	-2.8303	27.76484	33.23181	1.19666	0.83566	7.34621	142.10506	2.55556	0.4373	7.89446	972.23746	1.00351	0.00814841	1886.90433	32232.255	229.1658	7830.845
1345.0	0.56205	0.43795	7.77546	7.69848	-3.11139	27.05888	33.34663	1.18887	0.84114	11.08649	143.96501	3.87525	0.43042	7.99119	1514.71968	0.98831	0.00521403	1887.22872	31245.394	197.3722	8622.611
1340.0	0.60737	0.39263	7.79493	7.67911	-3.35517	26.45565	33.43478	1.18207	0.84598	15.29198	145.57297	5.36746	0.42451	8.09098	2166.94822	0.97311	0.0036334	1887.467	30385.308	172.0172	9288.013
1335.0	0.64621	0.35379	7.81203	7.66214	-3.56875	25.9356	33.50041	1.1761	0.85027	19.79556	146.97671	6.9733	0.41938	8.19385	2918.72934	0.95791	0.00268918	1887.6271	29627.365	151.5886	9851.681
1330.0	0.67975	0.32025	7.82711	7.64717	-3.7571	25.48522	33.54702	1.17081	0.85411	24.45789	148.21367	8.64292	0.41491	8.29958	3761.61098	0.94277	0.00208011	1887.71409	28952.506	134.9718	10332.671
1325.0	0.70891	0.29109	7.84057	7.63382	-3.92507	25.09108	33.57743	1.1661	0.85756	29.17035	149.3135	10.33694	0.41098	8.40847	4689.25124	0.92766	0.00166342	1887.73809	28345.828	121.3356	10745.883
1320.0	0.73441	0.26559	7.85264	7.62184	-4.07588	24.74438	33.59398	1.16188	0.86067	33.85163	150.29883	12.02546	0.4075	8.52043	5697.66922	0.9126	0.00136473	1887.70907	27795.566	110.0524	11103.08
1315.0	0.75682	0.24318	7.86352	7.61099	-4.2124	24.43717	33.59864	1.15807	0.8635	38.4461	151.18843	13.68771	0.4044	8.63532	6785.41749	0.89763	0.00114236	1887.62531	27292.344	100.6444	11413.635
1310.0	0.77665	0.22335	7.87341	7.60114	-4.33639	24.16473	33.59308	1.15462	0.86609	42.91057	151.99756	15.30735	0.40163	8.75334	7952.09795	0.88274	9.71688E-4	1887.49437	26828.63	92.7428	11685.077
1305.0	0.79427	0.20573	7.88246	7.59209	-4.45032	23.92008	33.57873	1.15146	0.86846	47.2241	152.73855	16.87612	0.39914	8.87461	9200.1015	0.86793	8.37225E-4	1887.32664	26398.321	86.0618	11923.507
1300.0	0.80999	0.19001	7.89077	7.58374	-4.55547	23.69977	33.55665	1.14857	0.87065	51.36848	153.42053	18.3868	0.39688	8.99897	10532.03057	0.85323	7.29029E-4	1887.1269	25996.439	80.3764	12133.901
1295.0	0.82409	0.17591	7.89844	7.57601	-4.65271	23.50142	33.5279	1.1459	0.87268	55.3338	154.05215	19.83521	0.39484	9.12657	11951.97893	0.83862	6.40375E-4	1886.89707	25618.891	75.5096	12320.348
1290.0	0.83676	0.16324	7.90556	7.5688	-4.74343	23.32114	33.4933	1.14343	0.87456	59.12133	154.64022	21.22135	0.39297	9.25748	13465.93368	0.82413	5.66566E-4	1886.6458	25262.29	71.3202	12486.233
1285.0	0.84821	0.15179	7.91221	7.56205	-4.82838	23.1569	33.45355	1.14112	0.87633	62.73152	155.19044	22.54493	0.39126	9.39177	15080.19255	0.80975	5.043E-4	1886.37685	24923.82	67.694	12634.371
1280.0	0.8586	0.1414	7.91842	7.55569	-4.90841	23.00626	33.40929	1.13897	0.87799	66.17099	155.70742	23.80804	0.38968	9.52938	16802.69889	0.79549	4.5115E-4	1886.09685	24601.118	64.5404	12767.12
1275.0	0.86804	0.13196	7.92427	7.5497	-4.98386	22.86837	33.36105	1.13694	0.87955	69.44519	156.19557	25.01231	0.38822	9.67051	18641.96979	0.78136	4.05329E-4	1885.80486	24292.198	61.784	12886.466
1270.0	0.87666	0.12334	7.92978	7.54402	-5.05535	22.74147	33.30925	1.13504	0.88103	72.55812	156.65754	26.15895	0.38687	9.81505	20606.6604	0.76737	3.655E-4	1885.50813	23995.377	59.3642	12994.088
1265.0	0.88453	0.11547	7.935	7.5386	-5.12353	22.62373	33.25428	1.13323	0.88244	75.52003	157.09664	27.25149	0.38561	9.9633	22707.6428	0.7535	3.30608E-4	1885.21453	23709.224	57.2306	13091.414
1264.87	0.88472	0.11528	7.93513	7.53847	-5.12516	22.62113	33.25282	1.13318	0.88247	75.59709	157.10813	27.27992	0.38558	9.9672	22765.39713	0.75314	3.29741E-4	1885.20329	23701.846	 	13093.817
1262.18	0.8898	0.1102	7.93803	7.53536	-5.16424	22.55008	33.22557	1.13212	0.8833	77.53409	157.37869	27.99503	0.38478	10.05282	24072.4734	0.74542	3.11291E-4	1887.73625	23534.544	 	13159.579
1260.0	0.89399	0.10601	7.94072	7.5325	-5.2003	22.47857	33.17813	1.13214	0.88329	79.19261	157.58049	28.6086	0.38407	10.13175	25209.53182	0.73856	2.96829E-4	1890.05423	23389.847	63.8754	13222.335
1255.0	0.90288	0.0971206	7.94657	7.52624	-5.2791	22.32592	33.07064	1.13211	0.8833	82.82211	158.02195	29.95296	0.38254	10.31582	27942.62069	0.72302	2.66923E-4	1895.36264	23069.186	64.1322	13354.91
1250.0	0.91076	0.0892439	7.95196	7.5204	-5.3526	22.18851	32.96567	1.132	0.88339	86.17384	158.43435	31.19644	0.38115	10.50374	30841.45658	0.70776	2.41043E-4	1900.64366	22765.03	60.8312	13471.345
1245.0	0.91778	0.082217	7.95697	7.51492	-5.4215	22.06431	32.8629	1.13181	0.88354	89.2811	158.82273	32.35093	0.37988	10.69564	33925.529	0.69278	2.18411E-4	1905.89229	22474.869	58.0322	13574.149
1240.0	0.92408	0.0759173	7.96165	7.50977	-5.48637	21.95174	32.76202	1.13156	0.88374	92.16465	159.19006	33.4238	0.37873	10.89136	37212.38718	0.67809	1.98464E-4	1911.10754	22196.665	55.6408	13665.358
1235.0	0.92975	0.0702539	7.96605	7.50487	-5.54803	21.84837	32.66272	1.13125	0.88398	94.84923	159.53917	34.42398	0.37766	11.09126	40722.59885	0.66367	1.80757E-4	1916.29963	21928.744	53.5842	13746.642
1230.0	0.93486	0.065136	7.9702	7.50021	-5.60663	21.75377	32.56485	1.13089	0.88426	97.35402	159.87263	35.35833	0.37668	11.29531	44478.22123	0.64952	1.64946E-4	1921.45845	21669.726	51.8036	13819.381
1225.0	0.93951	0.0604917	7.97415	7.49575	-5.66281	21.66611	32.46819	1.13048	0.88458	99.6979	160.1924	36.23372	0.37576	11.50383	48503.15119	0.63562	1.50755E-4	1926.59391	21418.459	50.2534	13884.724
1220.0	0.94374	0.0562639	7.97791	7.49146	-5.71675	21.58482	32.37262	1.13003	0.88493	101.89704	160.49989	37.05601	0.37491	11.71669	52822.77014	0.62199	1.37965E-4	1931.7031	21173.98	48.8958	13943.632
1215.0	0.9476	0.0524016	7.9815	7.48733	-5.76876	21.50904	32.278	1.12955	0.88531	103.96466	160.79661	37.82998	0.3741	11.93404	57464.78447	0.60862	1.26396E-4	1936.78804	20935.475	47.701	13996.915
1210.0	0.95114	0.0488602	7.98496	7.48334	-5.81901	21.43826	32.18421	1.12904	0.88571	105.91404	161.08378	38.56048	0.37335	12.15626	62459.57642	0.59549	1.15897E-4	1941.84669	20702.257	46.6436	14045.262
1205.0	0.9544	0.0456045	7.98829	7.47946	-5.86778	21.37167	32.09117	1.12849	0.88614	107.75664	161.3622	39.25169	0.37264	12.38309	67839.84609	0.58261	1.06346E-4	1946.88408	20473.736	45.7042	14089.257
1200.0	0.9574	0.0426036	7.99025	7.47468	-5.92803	21.26731	31.83219	1.13383	0.88197	109.59123	161.26155	39.95142	0.37156	12.61496	73641.07857	0.56996	9.76368E-5	1950.99978	20146.5702	65.43316	14129.403
1195.0	0.96017	0.0398285	7.99828	7.46824	-6.00896	21.09471	31.5045	1.14173	0.87586	111.6133	161.16175	40.72911	0.37019	12.85193	81393.14957	0.55756	8.80378E-5	1955.11031	19805.50936	68.21217	14166.138
1190.0	0.96274	0.0372569	8.00587	7.46199	-6.08767	20.92791	31.19033	1.1493	0.87009	113.52749	161.05829	41.46695	0.36889	13.0943	89905.71087	0.54537	7.94307E-5	1959.20434	19471.4508	66.81171	14199.824
1185.0	0.96513	0.0348682	8.01304	7.45589	-6.16439	20.76618	30.88844	1.15657	0.86462	115.34361	160.95268	42.16848	0.36765	13.34192	99256.93779	0.53342	7.17015E-5	1963.28997	19143.93373	65.50341	14230.792
1180.0	0.96736	0.0326433	8.01982	7.44995	-6.23919	20.60943	30.5979	1.16355	0.85944	117.06947	160.84628	42.83649	0.36647	13.59491	109533.1553	0.5217	6.47518E-5	1967.36251	18822.5518	64.27639	14259.324
1175.0	0.96943	0.030567	8.02625	7.44416	-6.31209	20.45757	30.31792	1.17025	0.85452	118.71082	160.74002	43.47301	0.36534	13.85391	120828.4049	0.51019	5.84967E-5	1971.41851	18506.93602	63.12316	14285.668
1170.0	0.97137	0.0286253	8.03235	7.4385	-6.38332	20.30994	30.04787	1.17669	0.84984	120.27534	160.63473	44.08085	0.36426	14.11875	133248.9855	0.49889	5.28609E-5	1975.46662	18196.75124	62.03696	14310.042
1165.0	0.97319	0.0268064	8.03815	7.43297	-6.45289	20.16656	29.78714	1.18288	0.84539	121.7678	160.53086	44.66172	0.36322	14.38955	146910.0238	0.4878	4.77793E-5	1979.50317	17891.69098	61.01205	14332.637
1160.0	0.9749	0.0250995	8.04366	7.42757	-6.5209	20.02715	29.53521	1.18882	0.84117	123.19359	160.42911	45.21758	0.36223	14.66675	161941.3916	0.47692	4.31937E-5	1983.52725	17591.47431	60.04333	14353.624
1155.0	0.97651	0.0234938	8.04891	7.42228	-6.5874	19.89163	29.29156	1.19453	0.83715	124.55785	160.32991	45.75029	0.36128	14.95036	178486.6507	0.46624	3.9053E-5	1987.53346	17295.84363	59.12614	14373.152
1150.0	0.97802	0.0219807	8.05393	7.41711	-6.65247	19.75971	29.05575	1.20001	0.83333	125.86454	160.23346	46.26131	0.36037	15.24045	196703.5146	0.45576	3.53122E-5	1991.52623	17004.56191	58.25634	14391.357
1145.0	0.97945	0.0205536	8.05871	7.41205	-6.71621	19.63114	28.82734	1.20527	0.82969	126.82264	160.14	46.64359	0.35949	15.53755	216767.8808	0.44548	3.19311E-5	1995.50831	16717.40763	57.43086	14408.355
1140.0	0.9808	0.019205	8.06329	7.40709	-6.77865	19.50587	28.6059	1.21032	0.82623	128.06959	160.0498	47.13152	0.35864	15.84162	238875.5082	0.43539	2.88738E-5	1999.47415	16434.17611	56.6463	14424.257
1135.0	0.98209	0.0179097	8.06773	7.40222	-6.83987	19.38365	28.39081	1.21517	0.82293	129.26732	159.96352	47.60092	0.35782	16.14262	263252.7268	0.42576	2.61073E-5	2003.43695	16154.06901	56.02142	14439.769
1130.0	0.98342	0.0165821	8.07221	7.39745	-6.89994	19.26432	28.18047	1.21989	0.81974	130.45177	159.88335	48.06539	0.35702	16.40069	290196.5468	0.41757	2.35993E-5	2007.43007	15874.39857	55.93409	14457.487
1125.0	0.98468	0.0153244	8.0765	7.39277	-6.95881	19.148	27.97617	1.22442	0.81671	131.58835	159.80678	48.51173	0.35625	16.66705	319919.4716	0.40943	2.13304E-5	2011.40203	15598.41189	55.19734	14474.079
1120.0	0.98587	0.0141311	8.08064	7.38818	-7.01662	19.03435	27.77764	1.22876	0.81383	132.68156	159.73391	48.94161	0.35551	16.94237	352722.8368	0.40134	1.92775E-5	2015.35866	15325.92744	54.49689	14489.641
1115.0	0.987	0.012999	8.08462	7.38367	-7.07337	18.92335	27.58461	1.23292	0.81108	133.7347	159.6648	49.35624	0.35479	17.22651	388940.5697	0.3933	1.74197E-5	2019.29166	15056.78083	53.82932	14504.259
1110.0	0.98808	0.0119226	8.08846	7.37924	-7.12915	18.81475	27.3968	1.2369	0.80847	134.75101	159.59951	49.75683	0.3541	17.51991	428946.7847	0.38532	1.57381E-5	2023.20366	14790.81479	53.19321	14518.013
1105.0	0.9891	0.0108976	8.09217	7.37488	-7.18402	18.70832	27.21394	1.24071	0.80599	135.73371	159.53811	50.14459	0.35342	17.82315	473158.8583	0.3774	1.4216E-5	2027.09606	14527.88487	52.58598	14530.973
1100.0	0.99008	0.00992184	8.09576	7.37059	-7.23799	18.60409	27.03576	1.24436	0.80363	136.68392	159.48042	50.51991	0.35277	18.13603	522036.3191	0.36954	1.28382E-5	2030.966	14267.85156	52.00666	14543.206
1095.0	0.99101	0.00898983	8.09924	7.36637	-7.29115	18.5018	26.86204	1.24785	0.80138	137.6046	159.4266	50.88392	0.35214	18.45954	576100.1536	0.36174	1.1591E-5	2034.81523	14010.58911	51.45249	14554.771
1085.0	0.99349	0.00651289	8.10551	7.35754	-7.40222	18.27723	26.52199	1.25461	0.79706	139.8458	159.36526	51.76384	0.35081	19.19687	704218.9983	0.34531	9.41297E-6	2041.99626	13486.1056	52.44835	14593.806
1080.0	0.99467	0.00532888	8.10843	7.35319	-7.45697	18.16618	26.35761	1.25778	0.79505	140.93649	159.34142	52.19241	0.35016	19.58979	778936.5095	0.33713	8.47873E-6	2045.51051	13227.09933	51.80125	14612.921
1075.0	0.99575	0.00424697	8.11127	7.34893	-7.51054	18.05833	26.19751	1.26079	0.79315	141.96295	159.31862	52.5965	0.34955	19.99234	861619.7299	0.32913	7.63676E-6	2049.03367	12971.90603	51.03866	14630.084
1070.0	0.99674	0.00325623	8.11402	7.34477	-7.563	17.95353	26.04087	1.26367	0.79134	142.93195	159.29717	52.97866	0.34896	20.40512	953180.0211	0.32127	6.87759E-6	2052.55161	12720.21101	50.339	14645.554
1065.0	0.99766	0.0023446	8.11675	7.34066	-7.61464	17.85071	25.8873	1.26644	0.78962	143.85061	159.27709	53.34159	0.34839	20.82857	1054683.285	0.31357	6.19255E-6	2056.06713	12471.25918	49.79037	14659.55
1060.0	0.9985	0.00150332	8.11939	7.33664	-7.66522	17.75083	25.73751	1.26905	0.78799	144.72386	159.25911	53.68713	0.34785	21.26242	1167207.855	0.30602	5.57465E-6	2059.58571	12225.57845	49.13615	14672.244
1055.0	0.99928	7.23611E-4	8.12197	7.3327	-7.7149	17.65325	25.59077	1.27154	0.78645	145.55661	159.24314	54.01712	0.34732	21.70754	1292068.28	0.29862	5.01705E-6	2063.10481	11982.7042	48.57485	14683.796
1050.0	1.0	0.0	8.1245	7.32881	-7.76376	17.55782	25.44747	1.27389	0.785	146.35287	159.22932	54.33311	0.34681	 	1430706.765	 	4.51383E-6	 	11742.45796	48.04925	14694.337
1045.0	1.0	0.0	8.12817	7.32551	-7.80539	17.48841	25.30869	1.27603	0.78368	146.70157	159.19236	54.47876	0.34641	 	1588241.91	 	4.05074E-6	 	11649.48411	18.59477	 
1040.0	1.0	0.0	8.13181	7.32223	-7.84664	17.41976	25.17252	1.27807	0.78243	147.04595	159.15922	54.62258	0.34602	 	1764538.106	 	3.6322E-6	 	11438.19186	42.25845	 
1035.0	1.0	0.0	8.13542	7.31898	-7.88752	17.35182	25.03885	1.28	0.78125	147.38626	159.12983	54.76465	0.34563	 	1961993.437	 	3.25422E-6	 	11228.23735	41.9909	 
1030.0	1.0	0.0	8.139	7.31576	-7.92804	17.28457	24.90758	1.28183	0.78014	147.72273	159.10411	54.90507	0.34526	 	2183333.245	 	2.91314E-6	 	11019.58243	41.73098	 
1025.0	1.0	0.0	8.14255	7.31257	-7.96821	17.21799	24.77862	1.28355	0.77909	148.05557	159.082	55.04393	0.34489	 	2431657.299	 	2.60561E-6	 	10812.19059	41.47837	 
1020.0	1.0	0.0	8.14607	7.3094	-8.00804	17.15205	24.65189	1.28518	0.7781	148.38499	159.06343	55.18131	0.34452	 	2710494.424	 	2.32856E-6	 	10606.02693	41.23273	 
1015.0	1.0	0.0	8.14957	7.30627	-8.04753	17.08673	24.5273	1.28672	0.77717	148.71118	159.04835	55.31728	0.34417	 	3023865.7	 	2.07917E-6	 	10401.05734	40.99392	 
1010.0	1.0	0.0	8.15305	7.30315	-8.0867	17.02201	24.40477	1.28816	0.7763	149.03434	159.03668	55.45193	0.34382	 	3376357.103	 	1.85488E-6	 	10197.24939	40.76159	 
1005.0	1.0	0.0	8.15649	7.30007	-8.12555	16.95785	24.28423	1.28951	0.77549	149.35464	159.02837	55.58533	0.34347	 	3773204.151	 	1.65332E-6	 	9994.57188	40.5355	 
1000.0	1.0	0.0	8.15992	7.29701	-8.16409	16.89425	24.16561	1.29077	0.77473	149.67226	159.02336	55.71755	0.34313	 	4220388.958	 	1.47236E-6	 	9792.99488	40.3154	 
995.0	1.0	0.0	8.16332	7.29397	-8.20232	16.83118	24.04882	1.29194	0.77403	149.98734	159.02158	55.84865	0.3428	 	4724753.636	 	1.31002E-6	 	9592.48955	40.10107	 
990.0	1.0	0.0	8.16669	7.29095	-8.24027	16.76861	23.93325	1.29306	0.77336	150.30005	159.02299	55.97869	0.34248	 	5294131.433	 	1.16452E-6	 	9393.02819	39.89227	 
985.0	1.0	0.0	8.17004	7.28796	-8.27793	16.70653	23.81995	1.29407	0.77276	150.61053	159.02753	56.10774	0.34215	 	5937498.807	 	1.03423E-6	 	9194.58416	39.68881	 
980.0	1.0	0.0	8.17337	7.28499	-8.3153	16.64493	23.70831	1.295	0.7722	150.91892	159.03515	56.23585	0.34184	 	6665152.318	 	9.17656E-7	 	8997.1318	39.49047	 
975.0	1.0	0.0	8.17668	7.28204	-8.3524	16.58377	23.59827	1.29584	0.7717	151.22535	159.04578	56.36308	0.34153	 	7488914.826	 	8.13457E-7	 	8800.64642	39.29707	 
970.0	1.0	0.0	8.17997	7.27912	-8.38924	16.52305	23.48979	1.29661	0.77124	151.52995	159.05939	56.48947	0.34122	 	8422375.45	 	7.20403E-7	 	8605.10425	39.10843	 
965.0	1.0	0.0	8.18324	7.27621	-8.42581	16.46274	23.3828	1.29731	0.77083	151.83284	159.07593	56.61509	0.34092	 	9481168.726	 	6.37379E-7	 	8410.48238	38.92437	 
960.0	1.0	0.0	8.18648	7.27332	-8.46213	16.40283	23.27726	1.29793	0.77046	152.13414	159.09534	56.73997	0.34063	 	1.068330138E7	 	5.63374E-7	 	8216.75876	38.74472	 
955.0	1.0	0.0	8.18971	7.27046	-8.49819	16.34331	23.17313	1.29847	0.77014	152.43395	159.11758	56.86416	0.34033	 	1.204953363E7	 	4.97471E-7	 	8023.91212	38.56933	 
950.0	1.0	0.0	8.19292	7.26761	-8.53401	16.28415	23.07036	1.29895	0.76985	152.73239	159.14262	56.98772	0.34005	 	1.360382572E7	 	4.38839E-7	 	7831.92193	38.39804	 
945.0	1.0	0.0	8.19611	7.26479	-8.56959	16.22534	22.9689	1.29935	0.76961	153.02955	159.17039	57.11066	0.33976	 	1.537385994E7	 	3.86727E-7	 	7640.76845	38.2307	 
940.0	1.0	0.0	8.19928	7.26198	-8.60494	16.16686	22.86872	1.29969	0.76942	153.32554	159.20087	57.23305	0.33948	 	1.739165444E7	 	3.40455E-7	 	7450.43256	38.06718	 
935.0	1.0	0.0	8.20243	7.25919	-8.64005	16.10871	22.76977	1.29995	0.76926	153.62043	159.23401	57.35492	0.33921	 	1.969428033E7	 	2.99411E-7	 	7260.89585	37.90734	 
930.0	1.0	0.0	8.20556	7.25641	-8.67494	16.05086	22.67202	1.30016	0.76914	153.91433	159.26977	57.4763	0.33894	 	2.232470931E7	 	2.63039E-7	 	7072.14055	37.75106	 
925.0	1.0	0.0	8.20868	7.25366	-8.70961	15.99331	22.57544	1.30029	0.76906	154.20732	159.30812	57.59722	0.33867	 	2.5332804E7	 	2.30842E-7	 	6884.14948	37.59822	 
920.0	1.0	0.0	8.21178	7.25092	-8.74406	15.93604	22.47998	1.30036	0.76901	154.49948	159.34902	57.71774	0.33841	 	2.877649358E7	 	2.02369E-7	 	6696.90601	37.44869	 
915.0	1.0	0.0	8.21486	7.2482	-8.7783	15.87903	22.38562	1.30037	0.76901	154.79089	159.39243	57.83787	0.33814	 	3.272315067E7	 	1.77216E-7	 	6510.39414	37.30238	 
910.0	1.0	0.0	8.21792	7.2455	-8.81233	15.82227	22.29232	1.30032	0.76904	155.08163	159.43832	57.95765	0.33789	 	3.725122379E7	 	1.55019E-7	 	6324.59833	37.15916	 
905.0	1.0	0.0	8.22097	7.24281	-8.84616	15.76576	22.20006	1.30021	0.76911	155.37176	159.48665	58.07711	0.33763	 	4.245215968E7	 	1.35453E-7	 	6139.50356	37.01895	 
900.0	1.0	0.0	8.22401	7.24014	-8.87978	15.70947	22.1088	1.30003	0.76921	155.66136	159.5374	58.19627	0.33738	 	4.843269268E7	 	1.18223E-7	 	5955.09533	36.88165	 
895.0	1.0	0.0	8.22703	7.23748	-8.91321	15.6534	22.01851	1.2998	0.76935	155.95049	159.59053	58.31517	0.33713	 	5.531753363E7	 	1.03068E-7	 	5771.35956	36.74715	 
890.0	1.0	0.0	8.23003	7.23484	-8.94645	15.59753	21.92918	1.29951	0.76952	156.23923	159.64601	58.43384	0.33689	 	6.325259141E7	 	8.9752E-8	 	5588.28265	36.61538	 
