T (C)	Fraction solid (wt)-TOTAL	Fraction liquid (wt)-LIQUID	Density (g/(cm)^3)-TOTAL	Molar volume (cm^3)-TOTAL	Volume change (%)-  	Average expansion coeff. (10e-6 1/K)-  	Thermal conductivity (W/(m*K))-TOTAL	Electrical resistivity (10e-6 Ohm*m)-TOTAL	Electrical conductivity (10e6 1/(Ohm*m))-TOTAL	Young's modulus (GPa)-TOTAL	Bulk modulus (GPa)-TOTAL	Shear modulus(GPa)-TOTAL	Poisson's ratio-TOTAL	Liquid viscosity (mPa s)-  	Total viscosity (mPa s)-  	Liquid diffusivity (10e-9 (m^2)/s)-  	Total diffusivity (10e-9 (m^2)/s)-  	Surface Tension (mN/m)-  	Enthalpy (J/mole)-TOTAL	Specific heat (J/(mole K))-TOTAL	Latent heat (J/mole)-TOTAL
1400.0	0.0	1.0	7.53989	7.92162	0.0	33.91141	32.59626	1.25757	0.79518	0.0	124.38249	0.0	0.5	7.23427	7.23427	1.12883	1.12883	1866.91495	40716.278	 	0.0
1395.0	0.0	1.0	7.54428	7.91702	-0.0580924	33.87405	32.51242	1.25705	0.79551	0.0	124.51595	0.0	0.5	7.31387	7.31387	1.1132	1.1132	1870.4274	40516.159	40.0238	0.0
1390.0	0.0	1.0	7.54865	7.91243	-0.11602	33.83689	32.42859	1.25652	0.79585	0.0	124.64942	0.0	0.5	7.39483	7.39483	1.09772	1.09772	1873.95169	40316.489	39.934	0.0
1385.0	0.0	1.0	7.55302	7.90786	-0.17379	33.7999	32.34475	1.25599	0.79618	0.0	124.78288	0.0	0.5	7.47719	7.47719	1.08236	1.08236	1877.48783	40117.265	39.8448	0.0
1380.0	0.0	1.0	7.55738	7.90329	-0.23139	33.76311	32.26091	1.25546	0.79652	0.0	124.91635	0.0	0.5	7.56097	7.56097	1.06714	1.06714	1881.03585	39918.483	39.7564	0.0
1376.75	0.0	1.0	7.56021	7.90034	-0.26873	33.73929	32.20642	1.25511	0.79674	0.0	125.00309	0.0	0.5	7.61619	7.61619	1.05732	1.05732	1883.34817	39789.527	39.68341	0.0
1375.0	0.0663404	0.93366	7.58417	7.87538	-0.5838	32.89626	32.36044	1.24781	0.8014	0.00184695	126.95103	6.18902E-4	0.49211	7.64116	8.576	1.05275	0.93799	1883.68795	38694.394	625.65443	1025.749
1370.0	0.23642	0.76358	7.64643	7.81124	-1.39342	30.7314	32.76015	1.22885	0.81377	0.30856	131.86906	0.10484	0.4716	7.71638	50.37554	1.03932	0.1592	1884.65675	35885.428	561.7932	3636.811
1365.0	0.36982	0.63018	7.69652	7.76044	-2.03478	29.02747	33.07169	1.21357	0.82402	1.90067	135.72036	0.65306	0.45519	7.79589	262.11806	1.02559	0.0305031	1885.55751	33660.893	444.907	5663.875
1360.0	0.4758	0.5242	7.73726	7.71953	-2.55119	27.66639	33.31463	1.20104	0.83261	5.32939	138.77859	1.848	0.44194	7.87951	730.33568	1.01161	0.0109142	1886.39348	31873.302	357.5182	7254.426
1355.0	0.56097	0.43903	7.77076	7.68627	-2.97098	26.57114	33.50288	1.19063	0.83989	10.49507	141.24458	3.66672	0.43113	7.9672	1466.19095	0.99741	0.00541989	1887.16446	30416.191	291.4222	8514.924
1350.0	0.63011	0.36989	7.79862	7.65873	-3.31868	25.67433	33.64625	1.18192	0.84608	16.9765	143.25875	5.96829	0.42222	8.05891	2440.46865	0.98304	0.00324618	1887.87656	29211.786	240.881	9523.142
1345.0	0.68675	0.31325	7.82201	7.63578	-3.60841	24.93758	33.75285	1.17456	0.85138	24.28153	144.92715	8.58103	0.41484	8.15457	3611.32269	0.96851	0.00218695	1888.52867	28202.621	201.833	10336.543
1340.0	0.73351	0.26649	7.84183	7.61637	-3.85336	24.32464	33.82895	1.16829	0.85595	31.97533	146.32662	11.34956	0.40866	8.25419	4938.61689	0.95387	0.00159425	1889.12556	27345.776	171.369	10998.041
1335.0	0.77242	0.22758	7.85876	7.59982	-4.06233	23.81137	33.87989	1.16292	0.8599	39.72391	147.51528	14.1522	0.40345	8.35759	6390.25425	0.93914	0.00122827	1889.66851	26608.87	147.3812	11540.018
1330.0	0.805	0.195	7.87337	7.58555	-4.24246	23.37815	33.90988	1.15828	0.86335	47.28965	148.5372	16.90081	0.39904	8.46491	7942.48309	0.92435	9.85155E-4	1890.16	25967.232	128.3276	11987.14
1325.0	0.83246	0.16754	7.88607	7.57313	-4.39921	23.0099	33.92249	1.15424	0.86637	54.51916	149.42588	19.53727	0.39526	8.57604	9579.63533	0.90953	8.14245E-4	1890.60221	25401.892	113.068	12358.375
1320.0	0.85573	0.14427	7.89719	7.56225	-4.53664	22.69551	33.92059	1.15069	0.86904	61.32161	150.20746	22.02619	0.39202	8.691	11292.62201	0.89469	6.88571E-4	1890.99587	24898.136	100.7512	12668.432
1315.0	0.87558	0.12442	7.90702	7.55259	-4.65856	22.42439	33.90656	1.14756	0.87142	67.65771	150.90239	24.3512	0.38921	8.80988	13078.2677	0.87985	5.92691E-4	1891.34457	24444.458	90.7356	12928.818
1310.0	0.89257	0.10743	7.91579	7.54395	-4.76758	22.18926	33.88238	1.14476	0.87355	73.51779	151.5266	26.50705	0.38676	8.93266	14937.43795	0.86502	5.17288E-4	1891.64944	24031.788	82.534	13148.598
1305.0	0.9072	0.0927993	7.92365	7.53618	-4.86574	21.98457	33.8496	1.14225	0.87547	78.90535	152.09244	28.49359	0.38462	9.05938	16872.69402	0.85023	4.5651E-4	1891.91155	23652.922	75.7732	13334.974
1300.0	0.91986	0.0801435	7.93075	7.52912	-4.95485	21.80524	33.80956	1.13998	0.87721	83.84334	152.6099	30.3181	0.38273	9.18997	18890.06878	0.83549	4.06465E-4	1892.13275	23302.099	70.1646	13493.704
1295.96	0.92876	0.0712399	7.93599	7.52389	-5.0209	21.67707	33.77239	1.1383	0.8785	87.49182	152.99688	31.66847	0.38137	9.29825	20578.90295	0.82364	3.7215E-4	1892.27506	23037.093	 	13603.823
1295.0	0.93082	0.0691841	7.93731	7.52256	-5.0376	21.64351	33.75297	1.13826	0.87853	88.37246	153.09084	31.99502	0.38103	9.32782	21002.16119	0.82053	3.64427E-4	1892.39903	22971.515	66.1168	13632.591
1290.0	0.94086	0.0591385	7.94387	7.51598	-5.12073	21.47934	33.6541	1.13796	0.87876	92.79088	153.56161	33.63515	0.37937	9.48459	23283.63509	0.80439	3.2767E-4	1893.05862	22640.752	66.1526	13772.048
1285.0	0.94941	0.0505936	7.94975	7.51002	-5.19589	21.33793	33.55949	1.13752	0.8791	96.72836	153.99389	35.09926	0.37793	9.6449	25655.23189	0.78849	2.96429E-4	1893.6819	22333.406	61.4692	13888.478
1280.0	0.95673	0.0432659	7.95507	7.50459	-5.26443	21.21543	33.46822	1.13696	0.87954	100.25103	154.39516	36.41116	0.37665	9.80882	28132.98328	0.77283	2.69454E-4	1894.26806	22044.974	57.6864	13986.381
1275.0	0.96307	0.036935	7.95994	7.49959	-5.32763	21.10819	33.37959	1.13631	0.88004	103.41763	154.7709	37.59214	0.37552	9.97637	30733.36159	0.7574	2.45861E-4	1894.81951	21771.974	54.6	14069.237
1270.0	0.96858	0.031425	7.96445	7.49493	-5.38649	21.01332	33.29305	1.13559	0.8806	106.27869	155.12569	38.6606	0.37451	10.14771	33473.61743	0.74221	2.25005E-4	1895.3381	21511.682	52.0584	14139.766
1265.0	0.9734	0.0265997	7.96864	7.49055	-5.44172	20.92883	33.20818	1.1348	0.88121	108.87583	155.46253	39.63173	0.37359	10.32284	36370.58337	0.72725	2.06412E-4	1895.825	21261.947	49.947	14200.118
1260.0	0.97765	0.0223457	7.97258	7.48642	-5.4939	20.85301	33.12464	1.13396	0.88186	111.2455	155.78432	40.51886	0.37276	10.50179	39442.75843	0.71254	1.89716E-4	1896.27908	21021.052	48.179	14252.008
1255.0	0.98143	0.0185739	7.9763	7.48248	-5.54364	20.78414	33.04221	1.13309	0.88255	113.41911	156.09341	41.33354	0.372	10.68486	42709.52872	0.69805	1.74634E-4	1896.70378	20787.613	46.6878	14296.815
1250.0	0.98479	0.0152109	7.97984	7.47871	-5.59118	20.72153	32.96066	1.13217	0.88326	115.42147	156.39126	42.08487	0.37129	10.87201	46190.39238	0.68378	1.60945E-4	1897.09399	20560.509	45.4208	14335.662
1245.0	0.9878	0.0121958	7.98313	7.47492	-5.6391	20.6572	32.8498	1.13226	0.88319	117.31868	156.64725	42.79934	0.37057	11.06343	49907.17563	0.66975	1.4847E-4	1901.0545	20322.45216	47.61137	14369.465
1240.0	0.99052	0.00947745	7.98933	7.46919	-5.71134	20.5163	32.49176	1.14097	0.87645	119.60966	156.72573	43.67961	0.36917	11.2591	54547.63387	0.65594	1.35392E-4	1904.99722	19975.81959	69.32651	14398.983
1235.0	0.99299	0.00701415	7.99527	7.46346	-5.78371	20.37382	32.148	1.14936	0.87005	121.77026	156.80372	44.51172	0.36784	11.45896	59598.9704	0.64237	1.23507E-4	1908.92405	19637.05165	67.75359	14424.842
1230.0	0.99523	0.00477053	8.00097	7.45772	-5.85612	20.23002	31.81738	1.15745	0.86396	123.81412	156.88217	45.30059	0.36658	11.66346	65102.87534	0.62902	1.12691E-4	1912.83464	19305.49177	66.31198	14447.569
1225.0	0.99728	0.0027155	8.00644	7.45199	-5.9285	20.08515	31.49913	1.16526	0.85818	125.75464	156.96139	46.0511	0.36538	11.87248	71105.84789	0.61589	1.02834E-4	1916.72781	18980.56821	64.98471	14467.606
1220.0	1.0	0.0	8.0115	7.4458	-6.00666	19.92067	31.20162	1.17244	0.85292	128.07162	157.07641	46.94332	0.36411	 	77919.46856	 	9.35285E-5	 	18650.19692	66.07426	14496.915
1215.0	1.0	0.0	8.01639	7.44126	-6.06402	19.82123	30.89822	1.17999	0.84746	128.8909	157.08951	47.27335	0.36325	 	84580.87286	 	8.58739E-5	 	18332.5034	63.5387	 
1210.0	1.0	0.0	8.02121	7.43678	-6.12052	19.72368	30.60478	1.1873	0.84224	129.68334	157.09977	47.59303	0.36242	 	91864.89412	 	7.87993E-5	 	18049.57858	56.58496	 
1205.0	1.0	0.0	8.02597	7.43237	-6.1762	19.62798	30.32087	1.19438	0.83725	130.45052	157.10799	47.90295	0.36161	 	99834.29423	 	7.22646E-5	 	17769.94895	55.92593	 
1200.0	1.0	0.0	8.03067	7.42802	-6.23107	19.53405	30.04607	1.20123	0.83248	131.19391	157.11482	48.20363	0.36083	 	108558.6184	 	6.62322E-5	 	17493.50844	55.2881	 
1195.0	1.0	0.0	8.0353	7.42374	-6.28517	19.44184	29.77997	1.20785	0.82792	131.91483	157.12083	48.49558	0.36007	 	118114.9756	 	6.0667E-5	 	17220.15438	54.67081	 
1190.0	1.0	0.0	8.03988	7.41951	-6.33852	19.3513	29.52219	1.21425	0.82356	132.61453	157.12646	48.77925	0.35933	 	128588.9137	 	5.55357E-5	 	16949.78742	54.07339	 
1185.0	1.0	0.0	8.0444	7.41534	-6.39113	19.26236	29.27235	1.22042	0.81939	133.29416	157.1321	49.05506	0.35862	 	140075.4015	 	5.08074E-5	 	16682.31147	53.49519	 
1180.0	1.0	0.0	8.04886	7.41123	-6.44304	19.17498	29.03011	1.22639	0.8154	133.95477	157.13806	49.32343	0.35792	 	152679.9403	 	4.64532E-5	 	16417.63369	52.93556	 
1175.0	1.0	0.0	8.05327	7.40717	-6.49427	19.08909	28.79513	1.23214	0.81159	134.59736	157.14463	49.5847	0.35725	 	166519.8047	 	4.24458E-5	 	16155.66436	52.39387	 
1170.0	1.0	0.0	8.05763	7.40317	-6.54483	19.00466	28.56707	1.23769	0.80796	135.22287	157.15201	49.83925	0.35659	 	181725.4415	 	3.87599E-5	 	15896.31689	51.86949	 
1165.0	1.0	0.0	8.06194	7.39921	-6.59475	18.92163	28.34563	1.24304	0.80448	135.83215	157.16039	50.08739	0.35595	 	198442.0401	 	3.53718E-5	 	15639.5077	51.36184	 
1160.0	1.0	0.0	8.06619	7.39531	-6.64405	18.83995	28.13052	1.24819	0.80116	136.42602	157.16992	50.32942	0.35533	 	216831.3212	 	3.22594E-5	 	15385.15618	50.8703	 
1155.0	1.0	0.0	8.0704	7.39145	-6.69275	18.75958	27.92144	1.25315	0.79799	137.00526	157.18073	50.56565	0.35473	 	237073.5232	 	2.9402E-5	 	15133.1846	50.39432	 
1150.0	1.0	0.0	8.07457	7.38764	-6.74086	18.68046	27.71813	1.25792	0.79496	137.57057	157.19294	50.79635	0.35414	 	259369.6733	 	2.67805E-5	 	14883.51804	49.93331	 
1145.0	1.0	0.0	8.07869	7.38387	-6.7884	18.60257	27.52034	1.26251	0.79207	138.12265	157.20661	51.02178	0.35357	 	283944.1222	 	2.43768E-5	 	14636.08436	49.48674	 
1140.0	1.0	0.0	8.08276	7.38015	-6.83539	18.52585	27.32781	1.26692	0.78932	138.66214	157.22184	51.24217	0.35301	 	311047.45	 	2.21742E-5	 	14390.81402	49.05407	 
1135.0	1.0	0.0	8.08679	7.37647	-6.88185	18.45026	27.14032	1.27116	0.78668	139.18964	157.23867	51.45778	0.35246	 	340959.6956	 	2.01573E-5	 	14147.64008	48.63479	 
1130.0	1.0	0.0	8.09079	7.37283	-6.9278	18.37576	26.95765	1.27523	0.78417	139.70573	157.25716	51.66881	0.35193	 	373994.0653	 	1.83116E-5	 	13906.49813	48.22839	 
1125.0	1.0	0.0	8.09474	7.36923	-6.97324	18.30232	26.77957	1.27913	0.78178	140.21096	157.27734	51.87547	0.35142	 	410501.0985	 	1.66236E-5	 	13667.32615	47.8344	 
1120.0	1.0	0.0	8.09865	7.36567	-7.01819	18.2299	26.6059	1.28288	0.7795	140.70583	157.29926	52.07798	0.35091	 	450873.4055	 	1.5081E-5	 	13430.06447	47.45234	 
1115.0	1.0	0.0	8.10253	7.36214	-7.06268	18.15846	26.43643	1.28647	0.77732	141.19085	157.32292	52.27651	0.35042	 	495551.0292	 	1.36721E-5	 	13194.65567	47.08176	 
1110.0	1.0	0.0	8.10637	7.35866	-7.1067	18.08797	26.271	1.28991	0.77525	141.66648	157.34836	52.47125	0.34994	 	545027.5428	 	1.23862E-5	 	12961.04453	46.72223	 
1105.0	1.0	0.0	8.11017	7.35521	-7.15028	18.01839	26.10943	1.2932	0.77328	142.13316	157.37559	52.66237	0.34948	 	599856.9688	 	1.12134E-5	 	12729.17791	46.37332	 
1100.0	1.0	0.0	8.11394	7.35179	-7.19343	17.9497	25.95155	1.29635	0.7714	142.59131	157.40461	52.85003	0.34902	 	660661.6434	 	1.01444E-5	 	12499.00472	46.03464	 
1095.0	1.0	0.0	8.11768	7.3484	-7.23615	17.88185	25.79721	1.29935	0.76961	143.04134	157.43544	53.03439	0.34857	 	728141.1673	 	9.17075E-6	 	12270.47579	45.70579	 
1090.0	1.0	0.0	8.12139	7.34505	-7.27847	17.81482	25.64626	1.30222	0.76792	143.48361	157.46808	53.21561	0.34813	 	803082.6036	 	8.28457E-6	 	12043.54385	45.38639	 
1085.0	1.0	0.0	8.12506	7.34173	-7.32039	17.74859	25.49856	1.30496	0.76631	143.91851	157.50253	53.39381	0.34771	 	886372.0814	 	7.47857E-6	 	11818.16342	45.07609	 
1080.0	1.0	0.0	8.1287	7.33844	-7.36193	17.68312	25.35398	1.30757	0.76478	144.34636	157.5388	53.56915	0.34729	 	979008.0485	 	6.746E-6	 	11594.29076	44.77453	 
1075.0	1.0	0.0	8.13231	7.33518	-7.40309	17.61838	25.21239	1.31006	0.76333	144.76751	157.57687	53.74174	0.34688	 	1082116.377	 	6.08066E-6	 	11371.88378	44.4814	 
1070.0	1.0	0.0	8.1359	7.33195	-7.44388	17.55435	25.07367	1.31242	0.76195	145.18226	157.61674	53.91171	0.34648	 	1196967.649	 	5.47682E-6	 	11150.90201	44.19636	 
1065.0	1.0	0.0	8.13946	7.32874	-7.48432	17.491	24.93771	1.31466	0.76065	145.59091	157.65841	54.07918	0.34609	 	1324996.884	 	4.9292E-6	 	10931.30649	43.9191	 
1060.0	1.0	0.0	8.14298	7.32557	-7.52441	17.42832	24.80439	1.31679	0.75942	145.99376	157.70188	54.24426	0.34571	 	1467826.137	 	4.43293E-6	 	10713.05974	43.64935	 
1055.0	1.0	0.0	8.14649	7.32242	-7.56417	17.36627	24.67362	1.3188	0.75826	146.39106	157.74712	54.40706	0.34533	 	1627290.361	 	3.98354E-6	 	10496.12567	43.38681	 
1050.0	1.0	0.0	8.14996	7.3193	-7.6036	17.30483	24.54529	1.32071	0.75717	146.78309	157.79414	54.56768	0.34496	 	1805467.079	 	3.5769E-6	 	10280.46959	43.13122	 
1045.0	1.0	0.0	8.15341	7.3162	-7.6427	17.24398	24.41931	1.32251	0.75614	147.17009	157.84293	54.72623	0.3446	 	2004710.39	 	3.20922E-6	 	10066.05804	42.88231	 
1040.0	1.0	0.0	8.15684	7.31312	-7.6815	17.1837	24.29539	1.32421	0.75517	147.55229	157.89346	54.88279	0.34425	 	2227690.029	 	2.87704E-6	 	9852.85885	42.63984	 
1035.0	1.0	0.0	8.16024	7.31008	-7.71999	17.12397	24.17385	1.3258	0.75426	147.92993	157.94574	55.03746	0.3439	 	2477436.26	 	2.57716E-6	 	9640.84103	42.40356	 
1030.0	1.0	0.0	8.16362	7.30705	-7.75818	17.06477	24.0544	1.32729	0.75341	148.30321	157.99975	55.19032	0.34356	 	2757391.535	 	2.30666E-6	 	9429.97471	42.17327	 
1025.0	1.0	0.0	8.16698	7.30405	-7.79608	17.00607	23.93697	1.32868	0.75262	148.67131	158.05437	55.34107	0.34323	 	3071469.952	 	2.06284E-6	 	9220.2314	41.94866	 
1020.0	1.0	0.0	8.17031	7.30107	-7.8337	16.94787	23.82149	1.32998	0.75189	149.03652	158.11183	55.49056	0.3429	 	3424125.631	 	1.84326E-6	 	9011.58389	41.7295	 
1015.0	1.0	0.0	8.17362	7.29811	-7.87105	16.89014	23.70788	1.33119	0.75121	149.39798	158.17097	55.63849	0.34258	 	3820431.95	 	1.64566E-6	 	8804.0048	41.51582	 
1010.0	1.0	0.0	8.17691	7.29517	-7.90812	16.83286	23.59608	1.3323	0.75058	149.75585	158.2318	55.78492	0.34226	 	4266172.643	 	1.468E-6	 	8597.46835	41.30729	 
1005.0	1.0	0.0	8.18018	7.29226	-7.94493	16.77602	23.48603	1.33333	0.75	150.11033	158.29429	55.92992	0.34195	 	4767947.235	 	1.30839E-6	 	8391.94972	41.10373	 
1000.0	1.0	0.0	8.18343	7.28936	-7.98148	16.7196	23.37766	1.33427	0.74947	150.46156	158.35843	56.07356	0.34164	 	5333293.016	 	1.16512E-6	 	8187.42493	40.90496	 
995.0	1.0	0.0	8.18666	7.28648	-8.01779	16.66359	23.27091	1.33513	0.74899	150.80972	158.42422	56.2159	0.34134	 	5970826.228	 	1.03663E-6	 	7983.87086	40.71081	 
990.0	1.0	0.0	8.18987	7.28363	-8.05384	16.60797	23.16573	1.3359	0.74856	151.15495	158.49162	56.357	0.34105	 	6690405.699	 	9.21487E-7	 	7781.26521	40.52113	 
985.0	1.0	0.0	8.19306	7.28079	-8.08966	16.55272	23.06207	1.3366	0.74817	151.49739	158.56064	56.49693	0.34076	 	7503322.646	 	8.184E-7	 	7579.58642	40.33576	 
980.0	1.0	0.0	8.19624	7.27797	-8.12523	16.49783	22.95987	1.33721	0.74783	151.83719	158.63126	56.63574	0.34047	 	8422521.187	 	7.26186E-7	 	7378.81371	40.15454	 
975.0	1.0	0.0	8.19939	7.27517	-8.16058	16.44328	22.85909	1.33775	0.74753	152.17448	158.70346	56.77348	0.34019	 	9462854.49	 	6.43771E-7	 	7178.92699	39.97734	 
970.0	1.0	0.0	8.20253	7.27239	-8.1957	16.38907	22.75968	1.33821	0.74727	152.50939	158.77723	56.9102	0.33991	 	1.064138303E7	 	5.7018E-7	 	6979.90685	39.80403	 
965.0	1.0	0.0	8.20565	7.26963	-8.2306	16.33518	22.66159	1.33859	0.74705	152.84203	158.85256	57.04596	0.33964	 	1.197772184E7	 	5.04529E-7	 	6781.73455	39.63446	 
960.0	1.0	0.0	8.20875	7.26688	-8.26528	16.28159	22.56479	1.33891	0.74688	153.17254	158.92944	57.1808	0.33937	 	1.349444551E7	 	4.46013E-7	 	6584.39195	39.46852	 
955.0	1.0	0.0	8.21183	7.26415	-8.29975	16.22829	22.46923	1.33915	0.74674	153.50102	159.00784	57.31476	0.33911	 	1.521756075E7	 	3.93906E-7	 	6387.86154	39.30608	 
950.0	1.0	0.0	8.2149	7.26143	-8.33402	16.17528	22.37487	1.33932	0.74665	153.82758	159.08777	57.44791	0.33884	 	1.717705893E7	 	3.4755E-7	 	6192.12635	39.14704	 
945.0	1.0	0.0	8.21796	7.25874	-8.36807	16.12253	22.28167	1.33943	0.74659	154.15233	159.1692	57.58026	0.33859	 	1.94075619E7	 	3.06349E-7	 	5997.17	38.99127	 
940.0	1.0	0.0	8.22099	7.25605	-8.40193	16.07004	22.18961	1.33946	0.74657	154.47536	159.25212	57.71188	0.33833	 	2.194907872E7	 	2.69765E-7	 	5802.97662	38.83868	 
935.0	1.0	0.0	8.22402	7.25339	-8.43559	16.01779	22.09864	1.33943	0.74658	154.79678	159.33653	57.84279	0.33808	 	2.484789229E7	 	2.37311E-7	 	5609.53086	38.68915	 
930.0	1.0	0.0	8.22702	7.25074	-8.46906	15.96578	22.00874	1.33934	0.74664	155.11667	159.4224	57.97303	0.33783	 	2.815760046E7	 	2.0855E-7	 	5416.81782	38.54261	 
925.0	1.0	0.0	8.23002	7.2481	-8.50233	15.91399	21.91986	1.33918	0.74672	155.43512	159.50974	58.10264	0.33759	 	3.194033882E7	 	1.83087E-7	 	5224.82313	38.39894	 
920.0	1.0	0.0	8.23299	7.24548	-8.53542	15.86242	21.83199	1.33896	0.74685	155.75223	159.59852	58.23166	0.33735	 	3.626821875E7	 	1.60567E-7	 	5033.53282	38.25806	 
915.0	1.0	0.0	8.23596	7.24287	-8.56833	15.81105	21.74509	1.33868	0.74701	156.06807	159.68874	58.36012	0.33711	 	4.122502192E7	 	1.40669E-7	 	4842.93335	38.11989	 
910.0	1.0	0.0	8.23891	7.24028	-8.60106	15.75987	21.65913	1.33834	0.7472	156.38272	159.78038	58.48805	0.33688	 	4.690819655E7	 	1.23106E-7	 	4653.01164	37.98434	 
905.0	1.0	0.0	8.24184	7.2377	-8.63361	15.70887	21.57408	1.33793	0.74742	156.69626	159.87344	58.61549	0.33665	 	5.343121515E7	 	1.0762E-7	 	4463.75497	37.85133	 
900.0	1.0	0.0	8.24476	7.23514	-8.66598	15.65805	21.48993	1.33747	0.74768	157.00877	159.9679	58.74246	0.33642	 	6.092635927E7	 	9.39799E-8	 	4275.151	37.72079	 
895.0	1.0	0.0	8.24767	7.23259	-8.69819	15.60739	21.40664	1.33695	0.74797	157.32031	160.06375	58.86899	0.33619	 	6.954801626E7	 	8.19786E-8	 	4087.18776	37.59265	 
890.0	1.0	0.0	8.25056	7.23005	-8.73022	15.55688	21.32419	1.33638	0.74829	157.63096	160.16099	58.99512	0.33597	 	7.947658193E7	 	7.14304E-8	 	3899.85366	37.46682	 
885.0	1.0	0.0	8.25345	7.22752	-8.76209	15.50652	21.24257	1.33575	0.74865	157.94077	160.2596	59.12086	0.33574	 	9.092309307E7	 	6.21695E-8	 	3713.13739	37.34325	 
880.0	1.0	0.0	8.25632	7.22501	-8.7938	15.45629	21.16173	1.33506	0.74903	158.24982	160.35959	59.24625	0.33553	 	1.041347235E8	 	5.40477E-8	 	3527.02795	37.22189	 
875.0	1.0	0.0	8.25917	7.22251	-8.82535	15.40619	21.08168	1.33432	0.74945	158.55817	160.46092	59.37131	0.33531	 	1.194013263E8	 	4.69328E-8	 	3341.51463	37.10266	 
870.0	1.0	0.0	8.26202	7.22003	-8.85674	15.35621	21.00238	1.33352	0.74989	158.86587	160.56361	59.49607	0.3351	 	1.370632149E8	 	4.0707E-8	 	3156.58727	36.98547	 
865.0	1.0	0.0	8.26485	7.21755	-8.88797	15.30634	20.92381	1.33268	0.75037	159.17299	160.66763	59.62054	0.33488	 	1.575204439E8	 	3.52654E-8	 	2972.23579	36.8703	 
860.0	1.0	0.0	8.26767	7.21509	-8.91905	15.25658	20.84596	1.33178	0.75088	159.47957	160.77299	59.74476	0.33467	 	1.81243885E8	 	3.05148E-8	 	2788.45043	36.75707	 
855.0	1.0	0.0	8.27048	7.21264	-8.94997	15.2069	20.76881	1.33083	0.75141	159.78568	160.87967	59.86874	0.33447	 	2.087884659E8	 	2.63722E-8	 	2605.22165	36.64576	 
850.0	1.0	0.0	8.27327	7.2102	-8.98075	15.15732	20.69233	1.32982	0.75198	160.09137	160.98767	59.99251	0.33426	 	2.408090141E8	 	2.27642E-8	 	2422.54019	36.53629	 
