T (C)	Fraction solid (wt)-TOTAL	Fraction liquid (wt)-LIQUID	Density (g/(cm)^3)-TOTAL	Molar volume (cm^3)-TOTAL	Volume change (%)-  	Average expansion coeff. (10e-6 1/K)-  	Thermal conductivity (W/(m*K))-TOTAL	Electrical resistivity (10e-6 Ohm*m)-TOTAL	Electrical conductivity (10e6 1/(Ohm*m))-TOTAL	Young's modulus (GPa)-TOTAL	Bulk modulus (GPa)-TOTAL	Shear modulus(GPa)-TOTAL	Poisson's ratio-TOTAL	Liquid viscosity (mPa s)-  	Total viscosity (mPa s)-  	Liquid diffusivity (10e-9 (m^2)/s)-  	Total diffusivity (10e-9 (m^2)/s)-  	Surface Tension (mN/m)-  	Enthalpy (J/mole)-TOTAL	Specific heat (J/(mole K))-TOTAL	Latent heat (J/mole)-TOTAL
800.0	0.28921	0.71079	7.86421	8.9542	0.0	49.72768	150.10801	0.17516	5.70923	0.37588	88.87353	0.12776	0.47098	6.2538	6.2538	0.83753	0.83753	1080.04457	26646.609	 	0.0
795.0	0.30888	0.69112	7.87484	8.94211	-0.13511	49.39809	151.04329	0.17326	5.77169	0.49453	89.57661	0.16833	0.46889	6.3097	6.3097	0.82625	0.82625	1072.34725	26271.418	75.0382	229.8
790.0	0.32822	0.67178	7.88534	8.9302	-0.26814	49.07429	151.9406	0.17143	5.83329	0.63751	90.26934	0.21731	0.46682	6.36595	6.36595	0.81511	0.81511	1064.52758	25901.459	73.9918	454.492
785.0	0.34725	0.65275	7.89573	8.91846	-0.39919	48.7559	152.80008	0.16966	5.894	0.80744	90.95203	0.27562	0.46476	6.42254	6.42254	0.80413	0.80413	1056.58835	25536.448	73.0022	674.36
780.0	0.366	0.634	7.90601	8.90688	-0.52854	48.44164	153.62241	0.16796	5.95386	1.00705	91.62504	0.34424	0.46271	6.47948	6.47948	0.7933	0.7933	1048.53243	25176.12	72.0656	889.668
775.0	0.38447	0.61553	7.9162	8.89541	-0.65662	48.12954	154.40891	0.16631	6.01288	1.23933	92.28907	0.42423	0.46067	6.53676	6.53676	0.78261	0.78261	1040.36278	24820.23	71.178	1100.661
770.0	0.40269	0.59731	7.9263	8.88406	-0.78338	47.81984	155.15869	0.16472	6.07104	1.507	92.94418	0.51657	0.45865	6.59436	6.59436	0.77208	0.77208	1032.08243	24468.55	70.336	1307.565
765.0	0.42067	0.57933	7.93631	8.87284	-0.90862	47.51357	155.87173	0.16318	6.12832	1.81326	93.59016	0.62242	0.45663	6.65215	6.65215	0.7617	0.7617	1023.69183	24120.869	69.5362	1510.591
760.0	0.43842	0.56158	7.94623	8.86181	-1.03191	47.213	156.54657	0.16169	6.18464	2.16112	94.22658	0.74285	0.45462	6.70999	6.70999	0.7515	0.7515	1015.19155	23776.99	68.7758	1709.934
755.0	0.45596	0.54404	7.95608	8.85081	-1.15469	46.91091	157.18507	0.16025	6.24006	2.55385	94.85524	0.87905	0.45261	6.76811	6.76811	0.74144	0.74144	1006.59006	23436.732	68.0516	1905.776
750.0	0.4733	0.5267	7.96585	8.83996	-1.27593	46.61257	157.78459	0.15887	6.29447	2.99458	95.47496	1.03218	0.45061	6.82624	6.82624	0.73155	0.73155	997.88542	23099.928	67.3608	2098.283
745.0	0.49045	0.50955	7.97556	8.82919	-1.39618	46.31522	158.34605	0.15753	6.34789	3.48726	96.08648	1.20365	0.44862	6.88436	6.88436	0.72183	0.72183	989.08101	22766.423	66.701	2287.609
740.0	0.50741	0.49259	7.9852	8.81853	-1.51521	46.02	158.86708	0.15624	6.40021	4.03455	96.68954	1.39447	0.44663	6.94243	6.94243	0.71228	0.71228	980.18024	22436.077	66.0692	2473.893
735.0	0.52421	0.47579	7.99477	8.80797	-1.63319	45.72613	159.34818	0.155	6.45143	4.64099	97.28452	1.60628	0.44463	7.0003	7.0003	0.7029	0.7029	971.18407	22108.762	65.463	2657.264
730.0	0.54084	0.45916	8.00428	8.79751	-1.74997	45.43444	159.78713	0.15381	6.50144	5.3093	97.87117	1.84013	0.44265	7.05791	7.05791	0.69371	0.69371	962.09608	21784.361	64.8802	2837.837
725.0	0.55732	0.44268	8.01374	8.78712	-1.86598	45.14271	160.18428	0.15267	6.55025	6.04375	98.45011	2.09756	0.44066	7.11525	7.11525	0.68469	0.68469	952.91987	21462.771	64.318	3015.714
721.13	0.56991	0.43009	8.021	8.77916	-1.9549	44.91885	160.46387	0.15181	6.58724	6.65761	98.8931	2.31307	0.43913	7.15936	7.15936	0.67783	0.67783	945.75202	21216.24	63.6524	3151.002
705.0	1.0	0.0	8.41611	8.36702	-6.55769	20.81284	119.41781	0.20068	4.98308	67.85271	99.36252	24.47459	0.38619	 	0.0	 	NaN	 	15209.584	372.461	8695.197
700.0	1.0	0.0	8.41905	8.3641	-6.59029	20.78739	119.20671	0.20001	4.99983	68.37546	99.9021	24.66773	0.38593	 	0.0	 	NaN	 	15067.339	28.449	 
695.0	1.0	0.0	8.42198	8.36118	-6.62282	20.76196	118.99529	0.19933	5.01673	68.89597	100.43599	24.86013	0.38567	 	0.0	 	NaN	 	14925.183	28.4312	 
690.0	1.0	0.0	8.42491	8.35828	-6.65528	20.73656	118.78354	0.19866	5.0338	69.41427	100.96426	25.05181	0.38541	 	0.0	 	NaN	 	14783.115	28.4136	 
685.0	1.0	0.0	8.42784	8.35538	-6.68767	20.71117	118.57147	0.19798	5.05104	69.93034	101.48693	25.24275	0.38516	 	0.0	 	NaN	 	14641.136	28.3958	 
680.0	1.0	0.0	8.43076	8.35248	-6.71998	20.68581	118.35907	0.1973	5.06844	70.44421	102.00408	25.43297	0.3849	 	0.0	 	NaN	 	14499.246	28.378	 
675.0	1.0	0.0	8.43367	8.3496	-6.75222	20.66046	118.14635	0.19662	5.08601	70.95588	102.51573	25.62246	0.38464	 	0.0	 	NaN	 	14357.445	28.3602	 
670.0	1.0	0.0	8.43658	8.34672	-6.78439	20.63514	117.9333	0.19593	5.10375	71.46535	103.02194	25.81123	0.38438	 	0.0	 	NaN	 	14215.733	28.3424	 
665.0	1.0	0.0	8.43949	8.34384	-6.81649	20.60984	117.71992	0.19525	5.12167	71.97264	103.52276	25.99928	0.38413	 	0.0	 	NaN	 	14074.111	28.3244	 
660.0	1.0	0.0	8.44239	8.34097	-6.84852	20.58456	117.50622	0.19456	5.13977	72.47775	104.01823	26.18661	0.38387	 	0.0	 	NaN	 	13932.579	28.3064	 
655.0	1.0	0.0	8.44529	8.33811	-6.88048	20.5593	117.29219	0.19387	5.15804	72.98068	104.50839	26.37323	0.38361	 	0.0	 	NaN	 	13791.137	28.2884	 
650.0	1.0	0.0	8.44818	8.33526	-6.91236	20.53406	117.07782	0.19318	5.1765	73.48144	104.99329	26.55913	0.38336	 	0.0	 	NaN	 	13649.786	28.2702	 
645.0	1.0	0.0	8.45107	8.33241	-6.94418	20.50884	116.86313	0.19249	5.19515	73.98004	105.47297	26.74432	0.3831	 	0.0	 	NaN	 	13508.526	28.252	 
640.0	1.0	0.0	8.45395	8.32957	-6.97592	20.48365	116.64811	0.19179	5.21398	74.47648	105.94748	26.9288	0.38284	 	0.0	 	NaN	 	13367.356	28.234	 
635.0	1.0	0.0	8.45683	8.32673	-7.00759	20.45847	116.43276	0.19109	5.23301	74.97077	106.41684	27.11257	0.38258	 	0.0	 	NaN	 	13226.278	28.2156	 
630.0	1.0	0.0	8.45971	8.3239	-7.03919	20.43332	116.21707	0.1904	5.25223	75.46292	106.88112	27.29563	0.38233	 	0.0	 	NaN	 	13085.291	28.1974	 
625.0	1.0	0.0	8.46258	8.32108	-7.07072	20.40818	116.00105	0.18969	5.27165	75.95292	107.34033	27.47799	0.38207	 	0.0	 	NaN	 	12944.396	28.179	 
620.0	1.0	0.0	8.46544	8.31826	-7.10218	20.38307	115.7847	0.18899	5.29128	76.44078	107.79454	27.65964	0.38181	 	0.0	 	NaN	 	12803.593	28.1606	 
615.0	1.0	0.0	8.4683	8.31545	-7.13356	20.35798	115.56801	0.18828	5.31111	76.92651	108.24377	27.84058	0.38155	 	0.0	 	NaN	 	12662.882	28.1422	 
610.0	1.0	0.0	8.47116	8.31265	-7.16488	20.33291	115.35098	0.18758	5.33115	77.41011	108.68806	28.02082	0.3813	 	0.0	 	NaN	 	12522.264	28.1236	 
605.0	1.0	0.0	8.47401	8.30985	-7.19612	20.30786	115.13362	0.18687	5.3514	77.89159	109.12745	28.20036	0.38104	 	0.0	 	NaN	 	12381.739	28.105	 
600.0	1.0	0.0	8.47686	8.30706	-7.2273	20.28283	114.91592	0.18616	5.37187	78.37095	109.56198	28.3792	0.38078	 	0.0	 	NaN	 	12241.306	28.0866	 
595.0	1.0	0.0	8.4797	8.30427	-7.2584	20.25782	114.69788	0.18544	5.39255	78.84819	109.99168	28.55734	0.38052	 	0.0	 	NaN	 	12100.968	28.0676	 
590.0	1.0	0.0	8.48254	8.30149	-7.28944	20.23284	114.4795	0.18472	5.41347	79.32332	110.4166	28.73478	0.38027	 	0.0	 	NaN	 	11960.723	28.049	 
585.0	1.0	0.0	8.48537	8.29872	-7.3204	20.20787	114.26078	0.18401	5.4346	79.79634	110.83676	28.91152	0.38001	 	0.0	 	NaN	 	11820.571	28.0304	 
580.0	1.0	0.0	8.4882	8.29595	-7.35129	20.18293	114.04171	0.18329	5.45597	80.26726	111.25221	29.08757	0.37975	 	0.0	 	NaN	 	11680.515	28.0112	 
575.0	1.0	0.0	8.49103	8.29319	-7.38212	20.158	113.82231	0.18256	5.47758	80.73607	111.66297	29.26292	0.37949	 	0.0	 	NaN	 	11540.552	27.9926	 
570.0	1.0	0.0	8.49385	8.29044	-7.41287	20.1331	113.60255	0.18184	5.49942	81.20278	112.06909	29.43757	0.37924	 	0.0	 	NaN	 	11400.685	27.9734	 
565.0	1.0	0.0	8.49666	8.28769	-7.44355	20.10822	113.38245	0.18111	5.52151	81.6674	112.47059	29.61153	0.37898	 	0.0	 	NaN	 	11260.913	27.9544	 
560.0	1.0	0.0	8.49948	8.28495	-7.47417	20.08336	113.16201	0.18038	5.54385	82.12993	112.86752	29.7848	0.37872	 	0.0	 	NaN	 	11121.236	27.9354	 
555.0	1.0	0.0	8.50228	8.28222	-7.50471	20.05852	112.94121	0.17965	5.56644	82.59037	113.25989	29.95737	0.37846	 	0.0	 	NaN	 	10981.654	27.9164	 
550.0	1.0	0.0	8.50508	8.27949	-7.53518	20.0337	112.72007	0.17891	5.58928	83.04872	113.64776	30.12925	0.37821	 	0.0	 	NaN	 	10842.169	27.897	 
545.0	1.0	0.0	8.50788	8.27677	-7.56559	20.0089	112.49857	0.17818	5.61239	83.50499	114.03114	30.30044	0.37795	 	0.0	 	NaN	 	10702.78	27.8778	 
540.0	1.0	0.0	8.51067	8.27405	-7.59592	19.98413	112.27672	0.17744	5.63577	83.95918	114.41007	30.47094	0.37769	 	0.0	 	NaN	 	10563.488	27.8584	 
535.0	1.0	0.0	8.51346	8.27134	-7.62619	19.95937	112.05452	0.1767	5.65941	84.41129	114.78458	30.64075	0.37744	 	0.0	 	NaN	 	10424.293	27.839	 
530.0	1.0	0.0	8.51625	8.26864	-7.65638	19.93463	111.83196	0.17595	5.68333	84.86132	115.15471	30.80986	0.37718	 	0.0	 	NaN	 	10285.194	27.8198	 
525.0	1.0	0.0	8.51903	8.26594	-7.68651	19.90992	111.60904	0.17521	5.70754	85.30928	115.52048	30.97829	0.37692	 	0.0	 	NaN	 	10146.19	27.8008	 
520.0	1.0	0.0	8.5218	8.26325	-7.71656	19.88523	111.38576	0.17446	5.73203	85.75517	115.88192	31.14603	0.37666	 	0.0	 	NaN	 	10007.276	27.7828	 
515.0	1.0	0.0	8.52457	8.26056	-7.74655	19.86056	111.16212	0.17371	5.75681	86.19899	116.23907	31.31308	0.37641	 	0.0	 	NaN	 	9868.461	27.763	 
510.0	1.0	0.0	8.52734	8.25788	-7.77647	19.8359	110.93812	0.17295	5.78189	86.64075	116.59196	31.47944	0.37615	 	0.0	 	NaN	 	9729.744	27.7434	 
505.0	1.0	0.0	8.5301	8.25521	-7.80632	19.81127	110.71376	0.1722	5.80727	87.08044	116.94061	31.64511	0.37589	 	0.0	 	NaN	 	9591.126	27.7236	 
500.0	1.0	0.0	8.53285	8.25254	-7.8361	19.78667	110.48903	0.17144	5.83296	87.51807	117.28505	31.8101	0.37563	 	0.0	 	NaN	 	9452.607	27.7038	 
495.0	1.0	0.0	8.53561	8.24988	-7.86581	19.76208	110.26393	0.17068	5.85897	87.95364	117.62531	31.9744	0.37538	 	0.0	 	NaN	 	9314.187	27.684	 
490.0	1.0	0.0	8.53835	8.24723	-7.89545	19.73751	110.03846	0.16991	5.8853	88.38715	117.96142	32.13801	0.37512	 	0.0	 	NaN	 	9175.866	27.6642	 
485.0	1.0	0.0	8.5411	8.24458	-7.92503	19.71296	109.81262	0.16915	5.91195	88.81861	118.29342	32.30094	0.37486	 	0.0	 	NaN	 	9037.645	27.6442	 
480.0	1.0	0.0	8.54383	8.24194	-7.95453	19.68844	109.58641	0.16838	5.93894	89.24801	118.62131	32.46318	0.3746	 	0.0	 	NaN	 	8899.524	27.6242	 
475.0	1.0	0.0	8.54657	8.2393	-7.98397	19.66394	109.35982	0.16761	5.96627	89.67536	118.94515	32.62473	0.37435	 	0.0	 	NaN	 	8761.503	27.6042	 
470.0	1.0	0.0	8.54929	8.23667	-8.01334	19.63945	109.13285	0.16683	5.99395	90.10066	119.26494	32.7856	0.37409	 	0.0	 	NaN	 	8623.582	27.5842	 
465.0	1.0	0.0	8.55202	8.23405	-8.04264	19.61499	108.9055	0.16606	6.02198	90.52391	119.58072	32.94578	0.37383	 	0.0	 	NaN	 	8485.762	27.564	 
460.0	1.0	0.0	8.55474	8.23143	-8.07187	19.59055	108.67777	0.16528	6.05037	90.94511	119.89252	33.10528	0.37357	 	0.0	 	NaN	 	8348.042	27.544	 
455.0	1.0	0.0	8.55745	8.22882	-8.10104	19.56613	108.44965	0.1645	6.07913	91.36427	120.20036	33.26409	0.37332	 	0.0	 	NaN	 	8210.423	27.5238	 
450.0	1.0	0.0	8.56016	8.22622	-8.13013	19.54173	108.22115	0.16371	6.10826	91.78138	120.50426	33.42222	0.37306	 	0.0	 	NaN	 	8072.905	27.5036	 
445.0	1.0	0.0	8.56287	8.22362	-8.15916	19.51735	107.99225	0.16293	6.13778	92.19645	120.80426	33.57966	0.3728	 	0.0	 	NaN	 	7935.487	27.4836	 
440.0	1.0	0.0	8.56557	8.22102	-8.18812	19.49299	107.76296	0.16214	6.16769	92.60948	121.10038	33.73642	0.37254	 	0.0	 	NaN	 	7798.171	27.4632	 
435.0	1.0	0.0	8.56827	8.21844	-8.21701	19.46866	107.53328	0.16134	6.198	93.02047	121.39264	33.8925	0.37229	 	0.0	 	NaN	 	7660.956	27.443	 
430.0	1.0	0.0	8.57096	8.21586	-8.24584	19.44434	107.3032	0.16055	6.22872	93.42942	121.68107	34.04789	0.37203	 	0.0	 	NaN	 	7523.841	27.423	 
425.0	1.0	0.0	8.57365	8.21328	-8.2746	19.42005	107.07272	0.15975	6.25985	93.83634	121.9657	34.20259	0.37177	 	0.0	 	NaN	 	7386.828	27.4026	 
420.0	1.0	0.0	8.57633	8.21071	-8.30329	19.39578	106.84183	0.15895	6.29141	94.24122	122.24654	34.35662	0.37151	 	0.0	 	NaN	 	7249.916	27.3824	 
415.0	1.0	0.0	8.57901	8.20815	-8.33191	19.37152	106.61054	0.15814	6.3234	94.64407	122.52363	34.50996	0.37126	 	0.0	 	NaN	 	7113.105	27.3622	 
410.0	1.0	0.0	8.58168	8.20559	-8.36046	19.34729	106.37884	0.15734	6.35584	95.04488	122.79699	34.66261	0.371	 	0.0	 	NaN	 	6976.394	27.3422	 
405.0	1.0	0.0	8.58435	8.20304	-8.38895	19.32308	106.14672	0.15653	6.38873	95.44366	123.06663	34.81458	0.37074	 	0.0	 	NaN	 	6839.784	27.322	 
400.0	1.0	0.0	8.58701	8.2005	-8.41737	19.29889	105.91419	0.15571	6.42209	95.84041	123.33259	34.96587	0.37049	 	0.0	 	NaN	 	6703.275	27.3018	 
395.0	1.0	0.0	8.58967	8.19796	-8.44572	19.27472	105.68123	0.1549	6.45592	96.23513	123.59489	35.11647	0.37023	 	0.0	 	NaN	 	6566.867	27.2816	 
390.0	1.0	0.0	8.59233	8.19542	-8.47401	19.25058	105.44786	0.15408	6.49023	96.62783	123.85355	35.26639	0.36997	 	0.0	 	NaN	 	6430.558	27.2618	 
385.0	1.0	0.0	8.59498	8.1929	-8.50223	19.22645	105.21405	0.15326	6.52503	97.01849	124.1086	35.41563	0.36971	 	0.0	 	NaN	 	6294.35	27.2416	 
380.0	1.0	0.0	8.59762	8.19038	-8.53038	19.20234	104.97982	0.15243	6.56035	97.40713	124.36005	35.56418	0.36946	 	0.0	 	NaN	 	6158.241	27.2218	 
375.0	1.0	0.0	8.60026	8.18786	-8.55846	19.17826	104.74515	0.1516	6.59618	97.79375	124.60793	35.71205	0.3692	 	0.0	 	NaN	 	6022.231	27.202	 
370.0	1.0	0.0	8.6029	8.18535	-8.58648	19.1542	104.51004	0.15077	6.63254	98.17834	124.85227	35.85924	0.36894	 	0.0	 	NaN	 	5886.32	27.1822	 
365.0	1.0	0.0	8.60553	8.18285	-8.61444	19.13015	104.27448	0.14994	6.66944	98.56091	125.09308	36.00574	0.36868	 	0.0	 	NaN	 	5750.507	27.1626	 
360.0	1.0	0.0	8.60816	8.18035	-8.64232	19.10613	104.03848	0.1491	6.70689	98.94146	125.33038	36.15156	0.36843	 	0.0	 	NaN	 	5614.793	27.1428	 
355.0	1.0	0.0	8.61078	8.17786	-8.67014	19.08213	103.80203	0.14826	6.74491	99.31998	125.5642	36.29669	0.36817	 	0.0	 	NaN	 	5479.175	27.1236	 
350.0	1.0	0.0	8.61339	8.17538	-8.69789	19.05815	103.56512	0.14742	6.78352	99.69649	125.79456	36.44115	0.36791	 	0.0	 	NaN	 	5343.654	27.1042	 
345.0	1.0	0.0	8.61601	8.1729	-8.72558	19.03419	103.32775	0.14657	6.82271	100.07097	126.02149	36.58491	0.36765	 	0.0	 	NaN	 	5208.229	27.085	 
340.0	1.0	0.0	8.61862	8.17043	-8.7532	19.01026	103.08991	0.14572	6.86252	100.44344	126.24499	36.728	0.3674	 	0.0	 	NaN	 	5072.899	27.066	 
335.0	1.0	0.0	8.62122	8.16796	-8.78075	18.98634	102.8516	0.14487	6.90294	100.81389	126.4651	36.8704	0.36714	 	0.0	 	NaN	 	4937.663	27.0472	 
330.0	1.0	0.0	8.62382	8.1655	-8.80824	18.96244	102.61282	0.14401	6.94401	101.18233	126.68183	37.01211	0.36688	 	0.0	 	NaN	 	4802.52	27.0286	 
325.0	1.0	0.0	8.62641	8.16304	-8.83566	18.93857	102.37355	0.14315	6.98573	101.54874	126.8952	37.15314	0.36662	 	0.0	 	NaN	 	4667.469	27.0102	 
320.0	1.0	0.0	8.629	8.16059	-8.86302	18.91471	102.13379	0.14229	7.02811	101.91315	127.10524	37.29349	0.36637	 	0.0	 	NaN	 	4532.509	26.992	 
315.0	1.0	0.0	8.63159	8.15815	-8.89031	18.89088	101.89354	0.14142	7.07119	102.27553	127.31196	37.43315	0.36611	 	0.0	 	NaN	 	4397.638	26.9742	 
310.0	1.0	0.0	8.63417	8.15571	-8.91753	18.86707	101.65279	0.14055	7.11497	102.63591	127.51539	37.57213	0.36585	 	0.0	 	NaN	 	4262.855	26.9566	 
305.0	1.0	0.0	8.63674	8.15328	-8.94469	18.84328	101.41153	0.13968	7.15947	102.99427	127.71554	37.71042	0.36559	 	0.0	 	NaN	 	4128.159	26.9392	 
300.0	1.0	0.0	8.63931	8.15085	-8.97179	18.81951	101.16976	0.1388	7.20471	103.35062	127.91243	37.84803	0.36534	 	0.0	 	NaN	 	3993.547	26.9224	 
295.0	1.0	0.0	8.64188	8.14843	-8.99881	18.79576	100.92747	0.13792	7.25071	103.70496	128.10609	37.98496	0.36508	 	0.0	 	NaN	 	3859.017	26.906	 
290.0	1.0	0.0	8.64444	8.14602	-9.02578	18.77203	100.68465	0.13703	7.29748	104.05729	128.29654	38.1212	0.36482	 	0.0	 	NaN	 	3724.568	26.8898	 
285.0	1.0	0.0	8.647	8.14361	-9.05267	18.74833	100.4413	0.13615	7.34506	104.40761	128.48378	38.25675	0.36456	 	0.0	 	NaN	 	3590.197	26.8742	 
280.0	1.0	0.0	8.64955	8.14121	-9.07951	18.72464	100.19741	0.13525	7.39346	104.75591	128.66785	38.39162	0.36431	 	0.0	 	NaN	 	3455.901	26.8592	 
275.0	1.0	0.0	8.65209	8.13881	-9.10627	18.70097	99.95297	0.13436	7.44269	105.10221	128.84875	38.5258	0.36405	 	0.0	 	NaN	 	3321.677	26.8448	 
270.0	1.0	0.0	8.65464	8.13642	-9.13298	18.67733	99.70797	0.13346	7.4928	105.4465	129.02652	38.6593	0.36379	 	0.0	 	NaN	 	3187.522	26.831	 
265.0	1.0	0.0	8.65717	8.13403	-9.15961	18.65371	99.4624	0.13256	7.54379	105.78879	129.20116	38.79211	0.36353	 	0.0	 	NaN	 	3053.433	26.8178	 
260.0	1.0	0.0	8.65971	8.13165	-9.18618	18.63011	99.21626	0.13165	7.59569	106.12906	129.37269	38.92424	0.36328	 	0.0	 	NaN	 	2919.406	26.8054	 
255.0	1.0	0.0	8.66224	8.12928	-9.21269	18.60653	98.96954	0.13074	7.64853	106.46734	129.54114	39.05568	0.36302	 	0.0	 	NaN	 	2785.435	26.7942	 
250.0	1.0	0.0	8.66476	8.12691	-9.23913	18.58297	98.72222	0.12983	7.70234	106.8036	129.70653	39.18643	0.36276	 	0.0	 	NaN	 	2651.517	26.7836	 
245.0	1.0	0.0	8.66728	8.12455	-9.26551	18.55943	98.47429	0.12891	7.75713	107.13786	129.86886	39.3165	0.36251	 	0.0	 	NaN	 	2517.646	26.7742	 
240.0	1.0	0.0	8.66979	8.1222	-9.29183	18.53591	98.22576	0.12799	7.81295	107.47011	130.02816	39.44588	0.36225	 	0.0	 	NaN	 	2383.816	26.766	 
235.0	1.0	0.0	8.6723	8.11984	-9.31808	18.51241	97.97659	0.12707	7.86981	107.80036	130.18444	39.57457	0.36199	 	0.0	 	NaN	 	2250.021	26.759	 
230.0	1.0	0.0	8.67481	8.1175	-9.34426	18.48893	97.7268	0.12614	7.92775	108.12861	130.33773	39.70258	0.36173	 	0.0	 	NaN	 	2116.265	26.7512	 
225.0	1.0	0.0	8.67731	8.11516	-9.37038	18.46548	97.47635	0.12521	7.9868	108.45485	130.48803	39.8299	0.36148	 	0.0	 	NaN	 	1982.666	26.7198	 
220.0	1.0	0.0	8.6798	8.11283	-9.39644	18.44205	97.22524	0.12427	8.047	108.77909	130.63538	39.95653	0.36122	 	0.0	 	NaN	 	1849.257	26.6818	 
215.0	1.0	0.0	8.68229	8.1105	-9.42243	18.41863	96.97347	0.12333	8.10837	109.10133	130.77977	40.08248	0.36096	 	0.0	 	NaN	 	1716.04	26.6434	 
210.0	1.0	0.0	8.68478	8.10818	-9.44836	18.39524	96.721	0.12238	8.17095	109.42157	130.92124	40.20773	0.3607	 	0.0	 	NaN	 	1583.015	26.605	 
205.0	1.0	0.0	8.68726	8.10586	-9.47422	18.37187	96.46784	0.12144	8.23479	109.7398	131.0598	40.3323	0.36045	 	0.0	 	NaN	 	1450.186	26.5658	 
200.0	1.0	0.0	8.68974	8.10355	-9.50002	18.34852	96.21396	0.12048	8.29991	110.05604	131.19546	40.45618	0.36019	 	0.0	 	NaN	 	1317.553	26.5266	 
195.0	1.0	0.0	8.69221	8.10125	-9.52576	18.32519	95.95936	0.11953	8.36635	110.37027	131.32824	40.57937	0.35993	 	0.0	 	NaN	 	1185.119	26.4868	 
190.0	1.0	0.0	8.69468	8.09895	-9.55143	18.30188	95.70401	0.11857	8.43417	110.68251	131.45816	40.70187	0.35967	 	0.0	 	NaN	 	1052.886	26.4466	 
185.0	1.0	0.0	8.69714	8.09666	-9.57704	18.27859	95.4479	0.1176	8.5034	110.99274	131.58523	40.82369	0.35942	 	0.0	 	NaN	 	920.855	26.4062	 
180.0	1.0	0.0	8.6996	8.09437	-9.60259	18.25533	95.19101	0.11663	8.57409	111.30098	131.70947	40.94481	0.35916	 	0.0	 	NaN	 	789.029	26.3652	 
175.0	1.0	0.0	8.70205	8.09209	-9.62807	18.23208	94.93333	0.11566	8.64628	111.60721	131.83089	41.06525	0.3589	 	0.0	 	NaN	 	657.41	26.3238	 
170.0	1.0	0.0	8.7045	8.08981	-9.65349	18.20886	94.67483	0.11468	8.72002	111.91145	131.94952	41.18499	0.35864	 	0.0	 	NaN	 	525.999	26.2822	 
165.0	1.0	0.0	8.70694	8.08754	-9.67885	18.18565	94.4155	0.1137	8.79538	112.21369	132.06536	41.30405	0.35839	 	0.0	 	NaN	 	394.8	26.2398	 
160.0	1.0	0.0	8.70938	8.08528	-9.70414	18.16247	94.15531	0.11271	8.87239	112.51393	132.17844	41.42241	0.35813	 	0.0	 	NaN	 	263.813	26.1974	 
155.0	1.0	0.0	8.71182	8.08302	-9.72937	18.13931	93.89425	0.11172	8.95111	112.81218	132.28876	41.54009	0.35787	 	0.0	 	NaN	 	133.042	26.1542	 
150.0	1.0	0.0	8.71425	8.08076	-9.75454	18.11617	93.63228	0.11072	9.03161	113.10843	132.39635	41.65707	0.35761	 	0.0	 	NaN	 	2.49	26.1104	 
145.0	1.0	0.0	8.71667	8.07852	-9.77964	18.09305	93.3694	0.10972	9.11394	113.40268	132.50122	41.77336	0.35736	 	0.0	 	NaN	 	-127.842	26.0664	 
140.0	1.0	0.0	8.71909	8.07627	-9.80468	18.06995	93.10557	0.10872	9.19818	113.69493	132.60338	41.88896	0.3571	 	0.0	 	NaN	 	-257.951	26.0218	 
