T (C)	Fraction solid (wt)-TOTAL	Fraction liquid (wt)-LIQUID	Density (g/(cm)^3)-TOTAL	Molar volume (cm^3)-TOTAL	Volume change (%)-  	Average expansion coeff. (10e-6 1/K)-  	Thermal conductivity (W/(m*K))-TOTAL	Electrical resistivity (10e-6 Ohm*m)-TOTAL	Electrical conductivity (10e6 1/(Ohm*m))-TOTAL	Young's modulus (GPa)-TOTAL	Bulk modulus (GPa)-TOTAL	Shear modulus(GPa)-TOTAL	Poisson's ratio-TOTAL	Liquid viscosity (mPa s)-  	Total viscosity (mPa s)-  	Liquid diffusivity (10e-9 (m^2)/s)-  	Total diffusivity (10e-9 (m^2)/s)-  	Surface Tension (mN/m)-  	Enthalpy (J/mole)-TOTAL	Specific heat (J/(mole K))-TOTAL	Latent heat (J/mole)-TOTAL
1400.0	0.0	1.0	7.47575	7.98345	0.0	32.66836	29.99197	1.36677	0.73165	0.0	122.16914	0.0	0.5	7.21397	7.21397	1.132	1.132	1775.40208	40684.299	 	0.0
1395.0	0.0	1.0	7.47988	7.97904	-0.0552292	32.6351	29.90871	1.36648	0.73181	0.0	122.30593	0.0	0.5	7.29252	7.29252	1.11646	1.11646	1778.61697	40482.708	40.3182	0.0
1390.0	0.0	1.0	7.48401	7.97464	-0.1103	32.60203	29.82545	1.36619	0.73196	0.0	122.44273	0.0	0.5	7.37241	7.37241	1.10105	1.10105	1781.88042	40281.573	40.227	0.0
1385.0	0.0	1.0	7.48812	7.97026	-0.16522	32.56915	29.74219	1.36589	0.73212	0.0	122.57953	0.0	0.5	7.45366	7.45366	1.08578	1.08578	1785.19302	40080.892	40.1362	0.0
1380.0	0.0	1.0	7.49223	7.96589	-0.21998	32.53647	29.65893	1.3656	0.73228	0.0	122.71633	0.0	0.5	7.53631	7.53631	1.07063	1.07063	1788.55532	39880.662	40.046	0.0
1375.0	0.0	1.0	7.49633	7.96153	-0.27458	32.50398	29.57567	1.3653	0.73244	0.0	122.85312	0.0	0.5	7.62038	7.62038	1.05562	1.05562	1791.96785	39680.881	39.9562	0.0
1370.0	0.0	1.0	7.50043	7.95718	-0.32903	32.47169	29.49241	1.365	0.7326	0.0	122.98992	0.0	0.5	7.70591	7.70591	1.04073	1.04073	1795.43109	39481.545	39.8672	0.0
1365.0	0.0	1.0	7.50452	7.95285	-0.38332	32.4396	29.40915	1.3647	0.73276	0.0	123.12672	0.0	0.5	7.79294	7.79294	1.02598	1.02598	1798.94553	39282.653	39.7784	0.0
1360.0	0.0	1.0	7.5086	7.94852	-0.43746	32.40772	29.32589	1.3644	0.73292	0.0	123.26352	0.0	0.5	7.88148	7.88148	1.01136	1.01136	1802.51158	39084.202	39.6902	0.0
1355.0	0.0	1.0	7.51267	7.94421	-0.49144	32.37604	29.24263	1.36409	0.73309	0.0	123.40032	0.0	0.5	7.97159	7.97159	0.99686	0.99686	1806.12964	38886.189	39.6026	0.0
1350.0	0.0	1.0	7.51674	7.93992	-0.54526	32.34456	29.15937	1.36379	0.73325	0.0	123.53711	0.0	0.5	8.06329	8.06329	0.9825	0.9825	1809.80007	38688.612	39.5154	0.0
1345.0	0.0	1.0	7.52079	7.93563	-0.59892	32.3133	29.07611	1.36348	0.73342	0.0	123.67391	0.0	0.5	8.15663	8.15663	0.96827	0.96827	1813.52318	38491.468	39.4288	0.0
1340.0	0.0	1.0	7.52484	7.93136	-0.65243	32.28224	28.99286	1.36317	0.73358	0.0	123.81071	0.0	0.5	8.25163	8.25163	0.95416	0.95416	1817.29926	38294.756	39.3424	0.0
1335.0	0.0	1.0	7.52889	7.9271	-0.70579	32.2514	28.9096	1.36286	0.73375	0.0	123.94751	0.0	0.5	8.34834	8.34834	0.94018	0.94018	1821.12855	38098.471	39.257	0.0
1330.0	0.0	1.0	7.53292	7.92285	-0.75898	32.22078	28.82634	1.36254	0.73392	0.0	124.0843	0.0	0.5	8.44679	8.44679	0.92634	0.92634	1825.01123	37902.612	39.1718	0.0
1325.24	0.0	1.0	7.53675	7.91883	-0.80943	32.19186	28.74716	1.36225	0.73408	0.0	124.2144	0.0	0.5	8.54209	8.54209	0.91329	0.91329	1828.75341	37716.746	39.08788	0.0
1325.0	0.00602	0.99398	7.53866	7.91682	-0.8346	32.1247	28.76317	1.36128	0.7346	1.28083E-7	124.35401	4.27159E-8	0.49924	8.54692	8.61568	0.91263	0.90535	1828.6785	37621.779	387.74702	85.396
1320.0	0.1243	0.8757	7.57627	7.87752	-1.32678	30.81112	29.08121	1.34218	0.74506	0.023822	127.04886	0.00802469	0.48429	8.6489	16.94328	0.89905	0.45893	1827.20324	35758.957	372.5644	1753.203
1315.0	0.22484	0.77516	7.60877	7.84389	-1.74803	29.69538	29.34942	1.32574	0.7543	0.26006	129.34281	0.0883703	0.47141	8.7546	88.3567	0.88541	0.0877281	1825.79315	34158.455	320.1004	3159.111
1310.0	0.31087	0.68913	7.63705	7.81484	-2.11193	28.73976	29.57684	1.3114	0.76254	0.96681	131.3125	0.33104	0.46025	8.86406	309.88895	0.87172	0.0249346	1824.44894	32772.418	277.2074	4350.968
1305.0	0.38492	0.61508	7.66175	7.78964	-2.42756	27.91928	29.76972	1.29879	0.76995	2.30719	133.01846	0.79529	0.45053	8.97731	753.85699	0.858	0.0102175	1823.16916	31562.852	241.9132	5366.77
1300.0	0.44905	0.55095	7.6835	7.76755	-2.7043	27.20777	29.93335	1.2876	0.77664	4.33092	134.5084	1.50169	0.44202	9.0944	1468.09001	0.84427	0.00523003	1821.95434	30499.38	212.6944	6236.888
1295.0	0.50489	0.49511	7.70275	7.74813	-2.9476	26.59025	30.07171	1.2776	0.78272	7.00364	135.82159	2.44108	0.43454	9.21533	2479.59893	0.83055	0.00308669	1820.80219	29557.561	188.3638	6985.766
1290.0	0.55372	0.44628	7.71989	7.73087	-3.16375	26.04904	30.18767	1.26864	0.78825	10.24186	136.98694	3.58626	0.42793	9.34022	3800.87613	0.81683	0.00200726	1819.71284	28717.596	167.993	7633.193
1285.0	0.59664	0.40336	7.73523	7.71549	-3.35646	25.57388	30.2839	1.26056	0.7933	13.94102	138.03012	4.90168	0.42207	9.46914	5436.36061	0.80313	0.0013989	1818.68421	27963.362	150.8468	8195.296
1280.0	0.63451	0.36549	7.74903	7.70166	-3.52965	25.1538	30.36252	1.25326	0.79792	17.99042	138.96958	6.34877	0.41684	9.60205	7385.38667	0.78947	0.00102642	1817.71556	27281.647	136.343	8685.282
1275.2	0.66677	0.33323	7.76101	7.68969	-3.67958	24.7968	30.42312	1.2469	0.80199	22.10906	139.79023	7.82702	0.41236	9.73356	9549.79568	0.7764	7.91336E-4	1816.83866	26685.49	 	9097.638
1275.0	0.66808	0.33192	7.76151	7.68919	-3.68582	24.78182	30.42557	1.24664	0.80216	22.29283	139.82511	7.89311	0.41217	9.73938	9649.47699	0.77583	7.83062E-4	1816.80772	26660.94	124.1414	9114.66
1270.0	0.70054	0.29946	7.77368	7.67703	-3.83816	24.41854	30.48395	1.24023	0.8063	27.16854	140.67336	9.65062	0.40761	9.89123	12408.25543	0.76146	6.06994E-4	1816.06704	26054.236	121.3408	9530.433
1265.0	0.72907	0.27093	7.78462	7.66609	-3.97515	24.09911	30.52746	1.23445	0.81008	32.11058	141.44097	11.43903	0.40355	10.04747	15495.79693	0.74719	4.84475E-4	1815.36915	25502.973	110.2526	9891.161
1260.0	0.75428	0.24572	7.79452	7.65621	-4.09899	23.8174	30.55805	1.22921	0.81353	37.0418	142.14207	13.22978	0.39994	10.20827	18911.47729	0.73303	3.95682E-4	1814.71341	24998.368	100.921	10205.627
1255.0	0.77664	0.22336	7.80354	7.64719	-4.21196	23.5668	30.57718	1.22443	0.81671	41.90071	142.78646	14.99989	0.3967	10.37381	22657.36221	0.71898	3.29188E-4	1814.10077	24533.273	93.019	10480.972
1250.0	0.79656	0.20344	7.81179	7.63892	-4.31552	23.3432	30.58622	1.22007	0.81963	46.64537	143.38309	16.73334	0.39379	10.54408	26742.88183	0.70505	2.77985E-4	1813.53043	24101.831	86.2884	10723.054
1245.0	0.81436	0.18564	7.81938	7.6313	-4.41102	23.1428	30.58642	1.21605	0.82233	51.24711	143.93932	18.41898	0.39115	10.71929	31181.03924	0.69125	2.37635E-4	1813.00216	23699.209	80.5244	10936.703
1240.0	0.83033	0.16967	7.82639	7.62425	-4.49928	22.96326	30.57869	1.21235	0.82484	55.68161	144.46097	20.04722	0.38876	10.89955	35987.25662	0.67758	2.0522E-4	1812.51503	23321.395	75.5628	11125.929
1235.0	0.8447	0.1553	7.8329	7.61768	-4.5816	22.80083	30.5641	1.20892	0.82718	59.9433	144.95306	21.61544	0.38658	11.08496	41187.10382	0.66404	1.78719E-4	1812.06976	22965.037	71.2716	11294.081
1230.0	0.85766	0.14234	7.83897	7.61154	-4.65842	22.65427	30.54324	1.20574	0.82937	64.01961	145.41943	23.11848	0.3846	11.27571	46802.72465	0.65065	1.56754E-4	1811.66516	22627.323	67.5428	11443.97
1225.0	0.86941	0.13059	7.84465	7.60578	-4.7306	22.52114	30.51681	1.20277	0.83141	67.90987	145.86319	24.5556	0.38278	11.47185	52863.78047	0.6374	1.3832E-4	1811.3021	22305.878	64.289	11577.969
1220.0	0.88006	0.11994	7.85	7.60035	-4.79864	22.40003	30.48547	1.19999	0.83334	71.61949	146.28761	25.92837	0.3811	11.67363	59408.28345	0.62429	1.22671E-4	1810.97964	21998.686	61.4384	11698.09
1215.0	0.88975	0.11025	7.85505	7.5952	-4.8631	22.28925	30.44971	1.19737	0.83516	75.15165	146.69486	27.23759	0.37956	11.88114	66474.61125	0.61133	1.09264E-4	1810.69847	21704.033	58.9306	11806.047
1211.01	0.89683	0.10317	7.85887	7.5913	-4.91203	22.20827	30.41805	1.1954	0.83654	77.83429	147.00906	28.2333	0.37841	12.05112	72511.86469	0.60109	9.9898E-5	1810.49965	21477.054	 	11884.129
1210.0	0.89879	0.10121	7.85984	7.59029	-4.92462	22.18692	30.41081	1.19488	0.83691	78.58754	147.09387	28.51306	0.3781	12.09649	74176.45541	0.59843	9.75901E-5	1810.59573	21417.282	57.3502	11906.474
1205.0	0.90822	0.0917802	7.86379	7.58502	-4.99064	22.06931	30.34343	1.19349	0.83788	82.33017	147.52554	29.90506	0.37653	12.32646	82914.81681	0.58528	8.70108E-5	1813.39643	21098.71584	63.71323	12012.943
1200.0	0.91671	0.0832857	7.87535	7.57709	-5.09005	21.84321	29.96267	1.20457	0.83017	86.6241	148.23761	31.51713	0.37424	12.56272	94216.99642	0.57233	7.6314E-5	1816.21205	20580.00266	103.74264	12107.753
1195.0	0.9244	0.0755984	7.88612	7.56928	-5.18779	21.62057	29.59873	1.21524	0.82288	90.69559	148.91189	33.04944	0.37212	12.80552	106672.9008	0.55958	6.71743E-5	1819.04247	20081.82705	99.63512	12192.419
1190.0	0.93137	0.0686255	7.89616	7.56162	-5.2838	21.40162	29.25121	1.22549	0.816	94.55528	149.55226	34.50535	0.37015	13.05495	120398.6965	0.54702	5.93135E-5	1821.88914	19602.33025	95.89936	12268.227
1185.0	0.93772	0.0622841	7.90553	7.5541	-5.37791	21.18701	28.91934	1.23532	0.80951	98.21393	150.16237	35.88832	0.36833	13.31116	135523.036	0.53465	5.25141E-5	1824.75129	19139.67563	92.53092	12336.271
1180.0	0.94349	0.0565056	7.91426	7.54675	-5.47004	20.977	28.60205	1.24474	0.80338	101.68209	150.74503	37.20185	0.36663	13.57432	152188.352	0.52249	4.66032E-5	1827.62953	18692.5165	89.43183	12397.487
1175.0	0.94877	0.0512275	7.92241	7.53956	-5.56012	20.77193	28.29842	1.25377	0.7976	104.96991	151.30233	38.44934	0.36504	13.84468	170550.5964	0.51053	4.14426E-5	1830.52452	18259.73567	86.55617	12452.679
1170.0	0.9536	0.0463954	7.93004	7.53254	-5.64809	20.57203	28.00765	1.26241	0.79213	108.08692	151.83667	39.634	0.36356	14.12227	190784.0836	0.49876	3.69195E-5	1833.43601	17840.20066	83.907	12502.54
1165.0	0.95774	0.042258	7.9371	7.52577	-5.7328	20.38119	27.72466	1.27088	0.78686	110.92094	152.3491	40.71334	0.36222	14.42232	212862.7221	0.48669	3.29755E-5	1836.36431	17432.95848	81.44844	12547.614
1160.0	0.96149	0.0385081	7.94368	7.5192	-5.81513	20.1966	27.45221	1.27903	0.78184	113.58852	152.84215	41.73085	0.36097	14.73748	237152.7179	0.47463	2.94951E-5	1839.30982	17036.19073	79.35355	12589.34
1155.0	0.96496	0.0350364	7.94987	7.5128	-5.89529	20.01764	27.19162	1.28678	0.77713	116.12706	153.31621	42.70037	0.35979	15.06032	263937.5161	0.46284	2.64095E-5	1842.27239	16649.91117	77.25591	12627.345
1150.0	0.96818	0.0318174	7.95569	7.50657	-5.97337	19.84409	26.94209	1.29415	0.77271	118.54524	153.77315	43.62503	0.35868	15.39103	293479.8292	0.4513	2.36679E-5	1845.25232	16273.4	75.30223	12662.021
1145.0	0.97117	0.0288257	7.96119	7.5005	-6.04942	19.67584	26.70289	1.30116	0.76855	120.85048	154.21464	44.50749	0.35764	15.72998	326070.13	0.44003	2.12275E-5	1848.24897	15906.00026	73.47995	12693.718
1140.0	0.97396	0.0260412	7.96639	7.49458	-6.12354	19.51262	26.47337	1.30781	0.76464	123.04979	154.64212	45.35026	0.35666	16.07724	362029.7806	0.42901	1.90516E-5	1851.26293	15547.12289	71.77547	12722.737
1135.0	0.97655	0.0234458	7.97132	7.48881	-6.19581	19.35422	26.25291	1.31413	0.76096	125.14979	155.05683	46.15576	0.35573	16.43316	401715.6503	0.41823	1.71087E-5	1854.29447	15196.24018	70.17654	12749.345
1130.0	0.97898	0.021016	7.97602	7.48317	-6.26638	19.20025	26.04087	1.32012	0.7575	127.16447	155.46124	46.9292	0.35485	16.79919	445545.5976	0.40766	1.53709E-5	1857.34278	14852.14844	68.81835	12774.5
1125.0	0.98158	0.0184165	7.98048	7.47755	-6.33686	19.04517	25.83092	1.32611	0.75408	129.37283	155.9062	47.77622	0.35395	17.22638	494832.4035	0.39614	1.37906E-5	1860.35348	14487.47717	72.93425	12825.35
1120.0	0.98383	0.0161697	7.98469	7.47218	-6.40414	18.8997	25.62932	1.33176	0.75088	131.3746	156.32793	48.54517	0.35312	17.66201	548870.0324	0.38499	1.23884E-5	1863.38682	14135.26282	70.44287	12868.65
1115.0	0.98582	0.0141815	7.98868	7.46701	-6.46886	18.76181	25.43572	1.33708	0.7479	133.21842	156.73067	49.25435	0.35235	18.10472	608275.5608	0.37422	1.11384E-5	1866.44356	13793.78986	68.29459	12905.926
1110.0	0.9881	0.0118976	7.99253	7.46171	-6.53527	18.61677	25.25208	1.34196	0.74518	135.18946	157.13004	50.01203	0.35157	18.52563	674856.7209	0.3644	1.00033E-5	1869.51707	13459.77973	66.80203	12940.284
1105.0	0.99033	0.00967016	7.99622	7.45646	-6.60094	18.47295	25.07565	1.34651	0.74266	137.11481	157.52007	50.75257	0.35082	18.94277	748657.9168	0.35509	8.98462E-6	1872.61004	13133.67365	65.22122	12971.123
1100.0	0.99248	0.00752209	7.99975	7.45129	-6.66574	18.33087	24.90573	1.35078	0.74031	138.98453	157.90152	51.47215	0.35009	19.35778	830411.9627	0.34622	8.0707E-6	1875.72259	12814.84943	63.76484	12998.92
1095.0	0.99453	0.00547207	8.00315	7.4462	-6.72951	18.19108	24.74175	1.35478	0.73813	140.78974	158.27492	52.16735	0.3494	19.772	920926.4131	0.33773	7.25096E-6	1878.85383	12502.82324	62.40524	13024.027
1090.0	0.99647	0.00353113	8.00644	7.4412	-6.7922	18.05384	24.58328	1.35853	0.73609	142.52655	158.64075	52.83667	0.34875	20.18699	1021117.108	0.32958	6.51561E-6	1882.00288	12197.12485	61.13968	13046.721
1085.0	0.99829	0.00170596	8.00963	7.43628	-6.85374	17.91939	24.42994	1.36205	0.73419	144.19216	158.99942	53.47899	0.34812	20.60347	1132000.535	0.32173	5.85582E-6	1885.17069	11897.38194	59.94858	13067.231
1080.0	1.0	0.0	8.01273	7.43147	-6.91402	17.78821	24.28153	1.36533	0.73243	145.78343	159.35115	54.09308	0.34752	 	1254694.673	 	5.26374E-6	 	11603.4111	58.79417	13085.758
1075.0	1.0	0.0	8.01686	7.42765	-6.96189	17.70046	24.1333	1.36863	0.73066	146.40893	159.62394	54.341	0.34713	 	1392167.936	 	4.72643E-6	 	11361.84162	48.3139	 
1070.0	1.0	0.0	8.02092	7.42389	-7.00901	17.61459	23.99055	1.37167	0.72904	147.0206	159.89235	54.58346	0.34675	 	1545927.078	 	4.24055E-6	 	11100.77529	52.21327	 
1065.0	1.0	0.0	8.02492	7.42018	-7.0554	17.53056	23.85264	1.37447	0.72755	147.61907	160.15666	54.82071	0.34638	 	1718018.582	 	3.80158E-6	 	10843.08342	51.53837	 
1060.0	1.0	0.0	8.02887	7.41654	-7.10108	17.44832	23.71936	1.37703	0.7262	148.20497	160.41716	55.05298	0.34602	 	1910757.26	 	3.40534E-6	 	10588.68093	50.8805	 
1055.0	1.0	0.0	8.03276	7.41295	-7.14606	17.36784	23.59047	1.37936	0.72498	148.77889	160.67412	55.28051	0.34567	 	2126762.82	 	3.048E-6	 	10337.4838	50.23943	 
1050.0	1.0	0.0	8.03659	7.40941	-7.19036	17.28907	23.46577	1.38147	0.72387	149.34142	160.92779	55.50352	0.34533	 	2369002.196	 	2.72603E-6	 	10089.40851	49.61506	 
1045.0	1.0	0.0	8.04037	7.40592	-7.234	17.21198	23.34504	1.38336	0.72288	149.89314	161.17841	55.72224	0.345	 	2640837.489	 	2.43618E-6	 	9844.37107	49.00749	 
1040.0	1.0	0.0	8.0441	7.40249	-7.277	17.13652	23.22808	1.38506	0.72199	150.43459	161.42622	55.93687	0.34468	 	2946081.291	 	2.17549E-6	 	9602.28621	48.41697	 
1035.0	1.0	0.0	8.04778	7.39911	-7.31938	17.06265	23.11469	1.38655	0.72121	150.96633	161.67144	56.14765	0.34437	 	3289060.536	 	1.94121E-6	 	9363.06748	47.84374	 
1030.0	1.0	0.0	8.05141	7.39577	-7.36115	16.99031	23.00468	1.38786	0.72054	151.4889	161.91428	56.35476	0.34406	 	3674689.609	 	1.73085E-6	 	9126.62703	47.28809	 
1025.0	1.0	0.0	8.05499	7.39249	-7.40234	16.91947	22.89785	1.38898	0.71995	152.00281	162.15494	56.55843	0.34377	 	4108554.419	 	1.54214E-6	 	8892.8755	46.75031	 
1020.0	1.0	0.0	8.05852	7.38924	-7.44296	16.85007	22.79403	1.38993	0.71946	152.50857	162.3936	56.75885	0.34348	 	4597009.838	 	1.37297E-6	 	8661.72286	46.23053	 
1015.0	1.0	0.0	8.06202	7.38604	-7.48303	16.78207	22.69304	1.39072	0.71905	153.00667	162.63043	56.9562	0.3432	 	5147291.23	 	1.22145E-6	 	8433.07716	45.72914	 
1010.0	1.0	0.0	8.06546	7.38289	-7.52258	16.7154	22.59471	1.39135	0.71873	153.49758	162.86561	57.15068	0.34292	 	5767643.874	 	1.08584E-6	 	8206.84671	45.24609	 
1005.0	1.0	0.0	8.06887	7.37977	-7.56161	16.65002	22.49889	1.39183	0.71848	153.98174	163.09928	57.34246	0.34265	 	6467472.185	 	9.6457E-7	 	7982.93973	44.7814	 
1000.0	1.0	0.0	8.07224	7.37669	-7.60016	16.58587	22.40542	1.39217	0.7183	154.45959	163.33159	57.53172	0.34239	 	7257511.796	 	8.56207E-7	 	7761.26525	44.3349	 
998.96	1.0	0.0	8.07293	7.37606	-7.60811	16.57268	22.38626	1.39222	0.71828	154.55824	163.37974	57.57078	0.34233	 	7434294.559	 	8.35164E-7	 	7715.42015	 	 
997.97	1.0	0.0	8.07375	7.3753	-7.61758	16.55278	22.36722	1.39232	0.71822	154.67968	163.42525	57.61945	0.34225	 	7610284.436	 	8.15214E-7	 	7665.15901	 	 
995.0	1.0	0.0	8.07573	7.3735	-7.64014	16.51544	22.3134	1.39242	0.71817	154.96006	163.56266	57.73048	0.3421	 	8153809.991	 	7.59096E-7	 	7534.95086	45.26288	 
990.0	1.0	0.0	8.07902	7.37049	-7.6778	16.45342	22.22435	1.39249	0.71814	155.42809	163.79332	57.9158	0.34185	 	9164187.724	 	6.72741E-7	 	7317.20737	43.5487	 
985.0	1.0	0.0	8.08228	7.36752	-7.71501	16.39248	22.13724	1.39244	0.71817	155.89092	164.02298	58.09903	0.3416	 	1.030735491E7	 	5.95761E-7	 	7101.45917	43.14964	 
980.0	1.0	0.0	8.0855	7.36459	-7.7518	16.33258	22.05194	1.39227	0.71825	156.34889	164.25172	58.28032	0.34135	 	1.16017434E7	 	5.27189E-7	 	6887.619	42.76803	 
975.0	1.0	0.0	8.08869	7.36168	-7.78819	16.27365	21.96834	1.39199	0.7184	156.80234	164.47964	58.45979	0.34111	 	1.30684904E7	 	4.66153E-7	 	6675.60317	42.40317	 
970.0	1.0	0.0	8.09185	7.35881	-7.8242	16.21565	21.88634	1.39161	0.71859	157.25157	164.7068	58.63757	0.34088	 	1.47318581E7	 	4.11863E-7	 	6465.33064	42.05451	 
965.0	1.0	0.0	8.09498	7.35596	-7.85983	16.15853	21.80582	1.39113	0.71884	157.69685	164.93327	58.81376	0.34065	 	1.661972E7	 	3.6361E-7	 	6256.72408	41.72131	 
960.0	1.0	0.0	8.09808	7.35315	-7.8951	16.10222	21.72671	1.39055	0.71914	158.13846	165.15911	58.98848	0.34042	 	1.876413114E7	 	3.20756E-7	 	6049.70947	41.40292	 
955.0	1.0	0.0	8.10115	7.35036	-7.93004	16.0467	21.6489	1.38989	0.71948	158.57663	165.38436	59.16183	0.34019	 	2.120198778E7	 	2.82723E-7	 	5844.21636	41.09862	 
950.0	1.0	0.0	8.1042	7.34759	-7.96465	15.99191	21.57233	1.38915	0.71987	159.01159	165.60908	59.33388	0.33997	 	2.397580181E7	 	2.48997E-7	 	5640.17725	40.80782	 
945.0	1.0	0.0	8.10722	7.34486	-7.99895	15.93782	21.49691	1.38832	0.72029	159.44355	165.83329	59.50473	0.33976	 	2.713460289E7	 	2.19111E-7	 	5437.52849	40.52975	 
940.0	1.0	0.0	8.11022	7.34214	-8.03294	15.88437	21.42257	1.38742	0.72076	159.87269	166.05703	59.67446	0.33954	 	3.07349907E7	 	1.9265E-7	 	5236.20959	40.26378	 
935.0	1.0	0.0	8.11319	7.33945	-8.06665	15.83153	21.34926	1.38645	0.72127	160.2992	166.28032	59.84313	0.33933	 	3.484237304E7	 	1.69239E-7	 	5036.16328	40.00926	 
930.0	1.0	0.0	8.11614	7.33678	-8.10008	15.77927	21.27702	1.3854	0.72181	160.72323	166.50319	60.01081	0.33912	 	3.953241124E7	 	1.48543E-7	 	4837.33555	39.76555	 
925.0	1.0	0.0	8.11907	7.33413	-8.13325	15.72754	21.20557	1.38429	0.72239	161.14493	166.72565	60.17756	0.33891	 	4.48927146E7	 	1.30263E-7	 	4639.67493	39.53212	 
920.0	1.0	0.0	8.12198	7.33151	-8.16616	15.67632	21.13498	1.38312	0.723	161.56444	166.94772	60.34344	0.33871	 	5.102483383E7	 	1.1413E-7	 	4443.13326	39.30834	 
915.0	1.0	0.0	8.12487	7.3289	-8.19882	15.62557	21.0652	1.38188	0.72365	161.98188	167.1694	60.5085	0.33851	 	5.804660735E7	 	9.99036E-8	 	4247.66495	39.09366	 
910.0	1.0	0.0	8.12774	7.32631	-8.23125	15.57526	20.99618	1.38059	0.72433	162.39737	167.3907	60.67278	0.33831	 	6.609490665E7	 	8.73692E-8	 	4053.22701	38.88759	 
905.0	1.0	0.0	8.1306	7.32374	-8.26344	15.52537	20.92788	1.37925	0.72503	162.81101	167.61164	60.83632	0.33811	 	7.532889916E7	 	7.63353E-8	 	3859.77891	38.68962	 
900.0	1.0	0.0	8.13343	7.32119	-8.29542	15.47586	20.86026	1.37784	0.72577	163.2229	167.8322	60.99918	0.33791	 	8.593386093E7	 	6.66309E-8	 	3667.28244	38.49929	 
895.0	1.0	0.0	8.13625	7.31865	-8.32718	15.42671	20.79329	1.37639	0.72654	163.63312	168.0524	61.16137	0.33772	 	9.812571357E7	 	5.81035E-8	 	3475.70154	38.31618	 
890.0	1.0	0.0	8.13905	7.31613	-8.35874	15.3779	20.72693	1.37489	0.72733	164.04175	168.27222	61.32294	0.33752	 	1.121563607E8	 	5.06172E-8	 	3285.00242	38.13982	 
885.0	1.0	0.0	8.14184	7.31363	-8.39009	15.32939	20.66115	1.37333	0.72815	164.44886	168.49167	61.48392	0.33733	 	1.283200247E8	 	4.40511E-8	 	3095.1527	37.96994	 
