T (C)	Fraction solid (wt)-TOTAL	Fraction liquid (wt)-LIQUID	Density (g/(cm)^3)-TOTAL	Molar volume (cm^3)-TOTAL	Volume change (%)-  	Average expansion coeff. (10e-6 1/K)-  	Thermal conductivity (W/(m*K))-TOTAL	Electrical resistivity (10e-6 Ohm*m)-TOTAL	Electrical conductivity (10e6 1/(Ohm*m))-TOTAL	Young's modulus (GPa)-TOTAL	Bulk modulus (GPa)-TOTAL	Shear modulus(GPa)-TOTAL	Poisson's ratio-TOTAL	Liquid viscosity (mPa s)-  	Total viscosity (mPa s)-  	Liquid diffusivity (10e-9 (m^2)/s)-  	Total diffusivity (10e-9 (m^2)/s)-  	Surface Tension (mN/m)-  	Enthalpy (J/mole)-TOTAL	Specific heat (J/(mole K))-TOTAL	Latent heat (J/mole)-TOTAL
1400.0	0.0	1.0	7.47759	7.98468	0.0	32.63553	29.97064	1.36774	0.73113	0.0	122.23217	0.0	0.5	7.23102	7.23102	1.12933	1.12933	1776.89572	40674.199	 	0.0
1395.0	0.0	1.0	7.48172	7.98027	-0.0552239	32.60218	29.88739	1.36746	0.73129	0.0	122.36904	0.0	0.5	7.3098	7.3098	1.11382	1.11382	1780.13349	40472.568	40.3262	0.0
1390.0	0.0	1.0	7.48584	7.97587	-0.11029	32.56903	29.80414	1.36716	0.73144	0.0	122.5059	0.0	0.5	7.38992	7.38992	1.09845	1.09845	1783.42013	40271.393	40.235	0.0
1385.0	0.0	1.0	7.48996	7.97149	-0.1652	32.53606	29.7209	1.36687	0.7316	0.0	122.64277	0.0	0.5	7.47141	7.47141	1.0832	1.0832	1786.75623	40070.671	40.1444	0.0
1380.0	0.0	1.0	7.49407	7.96711	-0.21996	32.50329	29.63765	1.36658	0.73175	0.0	122.77964	0.0	0.5	7.55429	7.55429	1.06808	1.06808	1790.14235	39870.402	40.0538	0.0
1375.0	0.0	1.0	7.49817	7.96275	-0.27456	32.47071	29.5544	1.36628	0.73191	0.0	122.9165	0.0	0.5	7.63861	7.63861	1.0531	1.0531	1793.57901	39670.581	39.9642	0.0
1370.0	0.0	1.0	7.50227	7.95841	-0.329	32.43833	29.47115	1.36599	0.73207	0.0	123.05337	0.0	0.5	7.72439	7.72439	1.03824	1.03824	1797.0667	39471.206	39.875	0.0
1365.0	0.0	1.0	7.50636	7.95407	-0.38328	32.40615	29.38791	1.36569	0.73223	0.0	123.19024	0.0	0.5	7.81167	7.81167	1.02352	1.02352	1800.60589	39272.275	39.7862	0.0
1360.0	0.0	1.0	7.51044	7.94975	-0.43741	32.37417	29.30466	1.36539	0.73239	0.0	123.3271	0.0	0.5	7.90048	7.90048	1.00893	1.00893	1804.197	39073.785	39.698	0.0
1355.0	0.0	1.0	7.51451	7.94544	-0.49139	32.3424	29.22141	1.36508	0.73256	0.0	123.46397	0.0	0.5	7.99085	7.99085	0.99446	0.99446	1807.84043	38875.733	39.6104	0.0
1350.0	0.0	1.0	7.51858	7.94114	-0.5452	32.31083	29.13816	1.36478	0.73272	0.0	123.60084	0.0	0.5	8.08282	8.08282	0.98013	0.98013	1811.53653	38678.117	39.5232	0.0
1345.0	0.0	1.0	7.52264	7.93686	-0.59886	32.27947	29.05491	1.36447	0.73288	0.0	123.7377	0.0	0.5	8.17643	8.17643	0.96592	0.96592	1815.28563	38480.935	39.4364	0.0
1340.0	0.0	1.0	7.52669	7.93259	-0.65237	32.24832	28.97167	1.36417	0.73305	0.0	123.87457	0.0	0.5	8.27171	8.27171	0.95184	0.95184	1819.08799	38284.184	39.3502	0.0
1335.0	0.0	1.0	7.53073	7.92833	-0.70572	32.21739	28.88842	1.36386	0.73321	0.0	124.01143	0.0	0.5	8.36871	8.36871	0.9379	0.9379	1822.94385	38087.862	39.2644	0.0
1330.0	0.0	1.0	7.53477	7.92408	-0.75891	32.18667	28.80517	1.36355	0.73338	0.0	124.1483	0.0	0.5	8.46745	8.46745	0.92408	0.92408	1826.85341	37891.965	39.1794	0.0
1325.82	0.0	1.0	7.53814	7.92054	-0.80325	32.16116	28.73558	1.36328	0.73352	0.0	124.26271	0.0	0.5	8.55138	8.55138	0.91262	0.91262	1830.16281	37728.546	39.0991	0.0
1325.0	0.02035	0.97965	7.54459	7.91376	-0.88815	31.93447	28.78983	1.36002	0.73528	1.6775E-5	124.73201	5.60122E-6	0.49745	8.56799	8.80724	0.91039	0.88565	1829.91747	37407.756	391.02134	288.733
1320.0	0.13803	0.86197	7.58201	7.87463	-1.37822	30.6265	29.10743	1.34097	0.74573	0.0363105	127.40376	0.0122461	0.48254	8.67218	20.72812	0.89663	0.37513	1828.48052	35553.749	370.8014	1947.688
1315.0	0.23799	0.76201	7.61431	7.84124	-1.79639	29.51921	29.37517	1.32458	0.75496	0.3273	129.67759	0.11135	0.46971	8.78039	108.67972	0.8828	0.071323	1827.10509	33961.797	318.3904	3345.009
1310.0	0.32346	0.67654	7.64239	7.81246	-2.1568	28.57329	29.60213	1.31028	0.76319	1.13599	131.62817	0.38941	0.4586	8.89266	363.11277	0.86891	0.0212798	1825.79181	32583.985	275.5624	4528.605
1305.0	0.39699	0.60301	7.66691	7.78749	-2.46961	27.76063	29.79462	1.29771	0.77059	2.61623	133.31621	0.90281	0.44893	9.00902	855.81286	0.85498	0.00900028	1824.54014	31382.287	240.3396	5536.502
1300.0	0.46063	0.53937	7.68849	7.76561	-2.74365	27.05661	29.95801	1.28654	0.77728	4.8048	134.78945	1.66778	0.44048	9.12948	1632.67584	0.84103	0.0047028	1823.34973	30326.312	211.195	6399.086
1295.0	0.51597	0.48403	7.70757	7.74633	-2.98507	26.44417	30.09578	1.27658	0.78334	7.65478	136.08599	2.67081	0.43304	9.25412	2718.24678	0.82706	0.00281569	1822.21926	29391.613	186.9398	7140.806
1290.0	0.56435	0.43565	7.72455	7.72924	-3.19912	25.90872	30.21119	1.26765	0.78886	11.07199	137.23627	3.88087	0.42648	9.38305	4122.70028	0.8131	0.00185057	1821.14747	28558.401	166.6424	7781.445
1285.0	0.60682	0.39318	7.73974	7.71403	-3.38953	25.44	30.30677	1.25961	0.7939	14.94385	138.26541	5.25943	0.42067	9.51633	5848.52174	0.79915	0.00130032	1820.13199	27810.558	149.5686	8337.119
1280.0	0.64427	0.35573	7.75338	7.70038	-3.56048	25.0262	30.38462	1.25235	0.7985	19.15561	139.19215	6.76637	0.4155	9.65406	7894.00215	0.78522	9.60291E-4	1819.17234	27134.89	135.1336	8821.023
1275.0	0.6774	0.3226	7.7657	7.68806	-3.71485	24.65922	30.44684	1.24577	0.80272	23.6008	140.03265	8.36387	0.41088	9.79624	10256.69229	0.77133	7.36703E-4	1818.26715	26520.529	122.8722	9244.019
1270.0	0.70682	0.29318	7.77688	7.67689	-3.85475	24.33328	30.49489	1.23979	0.80659	28.1865	140.80026	10.0184	0.40674	9.94303	12935.48681	0.75749	5.82253E-4	1817.41441	25958.484	112.409	9615.097
1265.0	0.73305	0.26695	7.78707	7.66671	-3.98216	24.04276	30.53056	1.23433	0.81016	32.83533	141.50626	11.70175	0.40301	10.09453	15931.6809	0.7437	4.7122E-4	1816.61264	25441.276	103.4416	9941.735
1260.0	0.75649	0.24351	7.79641	7.6574	-4.09886	23.78273	30.55509	1.22933	0.81345	37.4835	142.15927	13.39035	0.39965	10.2508	19249.19904	0.72998	3.8874E-4	1815.86074	24962.656	95.724	10230.181
1255.0	0.77752	0.22248	7.80499	7.64879	-4.2066	23.54813	30.56961	1.22474	0.8165	42.0826	142.76635	15.06612	0.3966	10.41187	22895.91963	0.71635	3.25758E-4	1815.15849	24517.378	89.0556	10485.674
1250.0	0.79641	0.20359	7.81292	7.64088	-4.30576	23.33809	30.57522	1.2205	0.81933	46.59309	143.33484	16.71405	0.39383	10.57805	26882.97511	0.70279	2.76536E-4	1814.50247	24101.021	83.2714	10712.635
1245.0	0.81345	0.18655	7.82025	7.63352	-4.39793	23.148	30.5728	1.21659	0.82197	50.98412	143.86878	18.32234	0.39131	10.74915	31222.98859	0.68933	2.37316E-4	1813.89357	23709.843	78.2356	10914.805
1240.0	0.82884	0.17116	7.82708	7.62666	-4.48383	22.97587	30.56325	1.21297	0.82443	55.24133	144.3734	19.88519	0.38901	10.92555	35937.93756	0.67597	2.05502E-4	1813.33001	23340.662	73.8362	11095.363
1235.0	0.84278	0.15722	7.83347	7.62023	-4.56429	22.81934	30.54726	1.20959	0.82673	59.34805	144.85199	21.39601	0.3869	11.10732	41048.12611	0.66271	1.79324E-4	1812.81165	22990.767	69.979	11257.018
1230.0	0.85545	0.14455	7.83944	7.61421	-4.63978	22.67708	30.5255	1.20644	0.82889	63.29658	145.30803	22.85147	0.38496	11.29447	46580.3091	0.64957	1.57502E-4	1812.33711	22657.834	66.5866	11402.091
1225.0	0.86697	0.13303	7.84507	7.60851	-4.71109	22.54682	30.49862	1.20349	0.83092	67.08541	145.74406	24.25064	0.38317	11.48715	52566.2238	0.63655	1.39103E-4	1811.90684	22339.868	63.5932	11532.576
1220.0	0.87748	0.12252	7.85038	7.60313	-4.77843	22.42801	30.46695	1.20072	0.83284	70.7083	146.16236	25.5908	0.38152	11.68564	59036.73647	0.62365	1.23443E-4	1811.51961	22035.148	60.944	11650.192
1215.0	0.88708	0.11292	7.8554	7.59803	-4.84237	22.31904	30.43109	1.19811	0.83465	74.17076	146.56502	26.87368	0.37999	11.88993	66033.3663	0.61088	1.09994E-4	1811.17553	21742.188	58.592	11756.423
1211.4	0.89343	0.10657	7.85885	7.59452	-4.8863	22.24666	30.40266	1.19633	0.83589	76.5468	146.84545	27.75517	0.37896	12.04043	71400.57979	0.60178	1.0148E-4	1810.95092	21538.553	 	11825.988
1210.0	0.89617	0.10383	7.8602	7.59312	-4.90381	22.21712	30.39267	1.19559	0.83641	77.58849	146.96338	28.14187	0.37852	12.10281	73703.21007	0.59812	9.82167E-5	1811.06581	21455.205	57.3966	11857.048
1205.0	0.90556	0.0944424	7.86405	7.58782	-4.9702	22.09847	30.32126	1.19437	0.83726	81.28606	147.39459	29.51662	0.37695	12.32929	82375.61476	0.58515	8.75803E-5	1813.87171	21133.88408	64.26418	11962.499
1200.0	0.91404	0.0859568	7.87572	7.57995	-5.06881	21.87511	29.93946	1.20551	0.82953	85.53399	148.10251	31.11085	0.37466	12.56222	93619.50239	0.57236	7.68011E-5	1816.6922	20615.10998	103.75482	12056.774
1195.0	0.92176	0.0782442	7.88661	7.57218	-5.16614	21.65397	29.57475	1.21623	0.82221	89.57355	148.77306	32.63059	0.37254	12.80166	106027.4387	0.55975	6.75832E-5	1819.52945	20116.53947	99.7141	12141.265
1190.0	0.92877	0.0712344	7.89678	7.56454	-5.26173	21.43658	29.22674	1.22652	0.81531	93.41181	149.41044	34.07785	0.37057	13.04791	119715.9369	0.54731	5.96518E-5	1822.38158	19636.40684	96.02653	12217.161
1185.0	0.93516	0.0648445	7.90627	7.55705	-5.35555	21.2231	28.89449	1.23638	0.80881	97.05663	150.01782	35.45504	0.36873	13.30099	134813.3035	0.53506	5.27905E-5	1825.24985	19173.15627	92.65011	12285.485
1180.0	0.94099	0.0590083	7.91513	7.54972	-5.44743	21.01408	28.57692	1.24584	0.80267	100.51729	150.59795	36.76518	0.36702	13.56117	151462.363	0.523	4.68266E-5	1828.13428	18725.40511	89.55023	12347.117
1175.0	0.94633	0.0536665	7.9234	7.54254	-5.53734	20.80977	28.2731	1.25489	0.79688	103.80351	151.15332	38.01153	0.36542	13.82857	169822.9318	0.51112	4.16202E-5	1831.03506	18291.92424	86.69617	12402.82
1170.0	0.95093	0.0490745	7.93108	7.5356	-5.62425	20.61357	27.97753	1.26377	0.79128	106.79953	151.6858	39.15027	0.36397	14.11687	189864.5873	0.49895	3.70983E-5	1833.95401	17871.72753	84.03934	12453.14
1165.0	0.95506	0.0449375	7.93822	7.52885	-5.7087	20.42379	27.6926	1.27235	0.78595	109.6125	152.1979	40.2212	0.36262	14.42173	211907.1413	0.48671	3.31242E-5	1836.8892	17462.63488	81.81853	12499.852
1160.0	0.95889	0.041108	7.94492	7.52228	-5.791	20.23954	27.42045	1.28051	0.78094	112.29113	152.68934	41.2424	0.36136	14.73387	236226.4628	0.47475	2.96108E-5	1839.84192	17064.82751	79.56147	12542.39
1155.0	0.96244	0.0375556	7.95122	7.51588	-5.87122	20.06061	27.1602	1.28827	0.77623	114.84466	153.16223	42.21714	0.36017	15.0536	263063.5564	0.46304	2.64972E-5	1842.81232	16677.51176	77.46315	12581.197
1150.0	0.96575	0.0342539	7.95714	7.50964	-5.94931	19.88723	26.91103	1.29565	0.77182	117.27967	153.61839	43.14772	0.35905	15.38114	292681.5066	0.45159	2.37324E-5	1845.79853	16299.97039	75.50827	12616.658
1145.0	0.96882	0.0311829	7.96274	7.50356	-6.02551	19.71868	26.67221	1.30265	0.76766	119.60338	154.05933	44.03676	0.35799	15.71669	325373.5419	0.4404	2.12729E-5	1848.80386	15931.55462	73.68315	12649.115
1140.0	0.97168	0.0283194	7.96804	7.49763	-6.0998	19.55512	26.44304	1.30931	0.76376	121.82334	154.48657	44.88698	0.357	16.06048	361467.8302	0.42945	1.90812E-5	1851.82613	15571.67891	71.97514	12678.868
1135.0	0.97435	0.0256475	7.97307	7.49184	-6.1723	19.39617	26.22293	1.31563	0.76009	123.94501	154.90128	45.70034	0.35606	16.41279	401323.3218	0.41875	1.71254E-5	1854.86707	15219.81881	70.37202	12706.181
1130.0	0.97685	0.0231524	7.97786	7.48619	-6.24299	19.24199	26.01131	1.32162	0.75664	125.97331	155.30466	46.47861	0.35518	16.77392	445338.971	0.40828	1.5378E-5	1857.9243	14875.49503	68.86476	12731.286
1125.0	0.97941	0.020591	7.98242	7.4806	-6.31303	19.08865	25.80226	1.32758	0.75325	128.13053	155.74135	47.30592	0.35428	17.18911	494648.7515	0.397	1.37957E-5	1860.95599	14513.87747	72.32351	12778.793
1120.0	0.98167	0.0183259	7.98672	7.47524	-6.38018	18.9439	25.60087	1.33324	0.75005	130.12675	156.16236	48.07243	0.35344	17.61878	548876.3691	0.38593	1.23883E-5	1864.00356	14160.85142	70.60521	12822.608
1115.0	0.9838	0.0162025	7.99082	7.47002	-6.44561	18.80375	25.40823	1.33853	0.74709	132.02521	156.56715	48.80204	0.35266	18.04956	608760.477	0.37537	1.11295E-5	1867.07209	13818.24293	68.5217	12860.716
1110.0	0.98613	0.0138668	7.99477	7.4647	-6.51216	18.65841	25.22497	1.3434	0.74438	134.01053	156.96707	49.56484	0.35187	18.46447	675726.7827	0.36561	9.99045E-6	1870.16038	13483.30544	66.9875	12895.69
1105.0	0.98842	0.011583	7.99855	7.45944	-6.57803	18.51414	25.0489	1.34795	0.74187	135.95348	157.35801	50.31176	0.35111	18.87608	749999.5982	0.35635	8.96855E-6	1873.26835	13156.23425	65.41424	12927.18
1100.0	0.99062	0.00937711	8.00218	7.45425	-6.64304	18.37154	24.87929	1.35222	0.73953	137.84237	157.74061	51.03834	0.35038	19.28592	832316.3797	0.34751	8.05223E-6	1876.39617	12836.43231	63.96039	12955.639
1095.0	0.99273	0.00726891	8.00567	7.44914	-6.70705	18.23112	24.7156	1.35622	0.73735	139.66892	158.11541	51.7414	0.34968	19.69543	923502.9563	0.33904	7.23073E-6	1879.54228	12523.43224	62.60001	12981.4
1090.0	0.99473	0.00527151	8.00904	7.44411	-6.76999	18.0932	24.55738	1.35996	0.73531	141.42674	158.48275	52.41845	0.34902	20.1059	1024475.109	0.33091	6.49425E-6	1882.70811	12216.7474	61.33697	13004.73
1085.0	0.99661	0.00339267	8.01231	7.43918	-6.83177	17.95814	24.40431	1.36348	0.73342	143.11272	158.84299	53.06829	0.34838	20.51839	1136261.643	0.32307	5.83386E-6	1885.8929	11916.07972	60.13354	13025.85
1080.0	0.99836	0.00163582	8.01549	7.43435	-6.89227	17.82633	24.25593	1.36677	0.73165	144.7244	159.19638	53.68991	0.34778	20.93347	1260001.111	0.31549	5.24157E-6	1889.09511	11621.21849	58.97225	13044.953
1075.0	1.0	0.0	8.0186	7.42962	-6.95149	17.69793	24.11201	1.36984	0.73001	146.26151	159.54324	54.28319	0.34721	 	1396971.121	 	4.71018E-6	 	11331.89072	57.86555	13062.214
1070.0	1.0	0.0	8.02266	7.42585	-6.99868	17.61181	23.96913	1.3729	0.72839	146.87338	159.8121	54.5257	0.34683	 	1551352.453	 	4.22572E-6	 	11092.55811	47.86652	 
1065.0	1.0	0.0	8.02667	7.42214	-7.04514	17.52753	23.83113	1.37571	0.7269	147.47205	160.07686	54.763	0.34646	 	1724157.052	 	3.78804E-6	 	10834.5046	51.6107	 
1060.0	1.0	0.0	8.03063	7.41849	-7.09088	17.44506	23.69777	1.37828	0.72554	148.05811	160.33781	54.9953	0.3461	 	1917712.915	 	3.39299E-6	 	10579.75346	50.95023	 
1055.0	1.0	0.0	8.03452	7.4149	-7.13592	17.36435	23.56885	1.38062	0.72431	148.63217	160.5952	55.22286	0.34575	 	2134654.781	 	3.03673E-6	 	10328.22094	50.3065	 
1050.0	1.0	0.0	8.03836	7.41135	-7.18028	17.28537	23.44413	1.38274	0.7232	149.19481	160.8493	55.44588	0.34541	 	2377966.292	 	2.71575E-6	 	10079.82581	49.67903	 
1045.0	1.0	0.0	8.04215	7.40786	-7.22398	17.20808	23.32341	1.38465	0.72221	149.74661	161.10035	55.6646	0.34508	 	2651028.491	 	2.42682E-6	 	9834.48497	49.06817	 
1040.0	1.0	0.0	8.04588	7.40443	-7.26703	17.13243	23.20649	1.38634	0.72132	150.28811	161.34859	55.87923	0.34476	 	2957675.543	 	2.16696E-6	 	9592.11442	48.47411	 
1035.0	1.0	0.0	8.04956	7.40104	-7.30946	17.05838	23.09315	1.38784	0.72054	150.81988	161.59423	56.08998	0.34445	 	3302258.588	 	1.93345E-6	 	9352.62806	47.89727	 
1030.0	1.0	0.0	8.0532	7.3977	-7.35127	16.98588	22.98322	1.38915	0.71986	151.34245	161.83748	56.29707	0.34414	 	3689719.379	 	1.7238E-6	 	9115.93841	47.33793	 
1025.0	1.0	0.0	8.05678	7.39441	-7.3925	16.91489	22.87649	1.39028	0.71928	151.85634	162.07855	56.50069	0.34384	 	4125675.075	 	1.53574E-6	 	8881.95619	46.79644	 
1020.0	1.0	0.0	8.06032	7.39116	-7.43315	16.84535	22.77279	1.39123	0.71879	152.36206	162.31762	56.70106	0.34356	 	4616515.567	 	1.36717E-6	 	8650.59114	46.27301	 
1015.0	1.0	0.0	8.06381	7.38796	-7.47326	16.77722	22.67194	1.39201	0.71838	152.86009	162.55487	56.89836	0.34327	 	5169516.315	 	1.2162E-6	 	8421.75055	45.76812	 
1010.0	1.0	0.0	8.06726	7.3848	-7.51283	16.71045	22.57377	1.39264	0.71806	153.35092	162.79047	57.09277	0.343	 	5792968.283	 	1.08109E-6	 	8195.34212	45.28169	 
1005.0	1.0	0.0	8.07067	7.38168	-7.55189	16.64496	22.47811	1.39312	0.71781	153.83499	163.02456	57.28449	0.34273	 	6496327.28	 	9.60286E-7	 	7971.2731	44.8138	 
1000.0	1.0	0.0	8.07404	7.3786	-7.59045	16.58073	22.38482	1.39345	0.71764	154.31275	163.25729	57.47367	0.34246	 	7290388.137	 	8.52345E-7	 	7749.45135	44.36435	 
995.0	1.0	0.0	8.07737	7.37556	-7.62854	16.51768	22.29374	1.39365	0.71754	154.7846	163.48879	57.66049	0.34221	 	8187484.885	 	7.55974E-7	 	7529.78609	43.93305	 
990.0	1.0	0.0	8.08066	7.37256	-7.66618	16.45576	22.20474	1.39372	0.7175	155.25093	163.71917	57.8451	0.34195	 	9201722.453	 	6.69996E-7	 	7312.18803	43.51961	 
985.0	1.0	0.0	8.08392	7.36959	-7.70338	16.39492	22.11768	1.39367	0.71753	155.71212	163.94853	58.02765	0.34171	 	1.034924616E7	 	5.93349E-7	 	7096.56974	43.12366	 
980.0	1.0	0.0	8.08714	7.36665	-7.74016	16.3351	22.03245	1.3935	0.71762	156.1685	164.17699	58.20827	0.34146	 	1.164855348E7	 	5.25071E-7	 	6882.84634	42.74468	 
975.0	1.0	0.0	8.09033	7.36375	-7.77653	16.27625	21.94892	1.39322	0.71776	156.62041	164.40461	58.38709	0.34122	 	1.312085548E7	 	4.64292E-7	 	6670.93593	42.38208	 
970.0	1.0	0.0	8.09349	7.36087	-7.81253	16.21832	21.86699	1.39284	0.71796	157.06814	164.63148	58.56424	0.34099	 	1.479049861E7	 	4.1023E-7	 	6460.7582	42.03555	 
965.0	1.0	0.0	8.09662	7.35803	-7.84815	16.16126	21.78656	1.39236	0.71821	157.51198	164.85766	58.73983	0.34076	 	1.668545344E7	 	3.62178E-7	 	6252.23707	41.70423	 
960.0	1.0	0.0	8.09972	7.35521	-7.88342	16.10502	21.70753	1.39178	0.7185	157.95219	165.08321	58.91396	0.34053	 	1.883788442E7	 	3.195E-7	 	6045.29912	41.38759	 
955.0	1.0	0.0	8.10279	7.35242	-7.91835	16.04955	21.62982	1.39112	0.71885	158.38901	165.30819	59.08673	0.34031	 	2.12848142E7	 	2.81623E-7	 	5839.87456	41.08491	 
950.0	1.0	0.0	8.10584	7.34966	-7.95296	15.99481	21.55334	1.39037	0.71923	158.82265	165.53262	59.25824	0.34009	 	2.406889987E7	 	2.48033E-7	 	5635.89683	40.79555	 
945.0	1.0	0.0	8.10886	7.34692	-7.98725	15.94076	21.47802	1.38955	0.71966	159.25334	165.75656	59.42855	0.33987	 	2.723933559E7	 	2.18268E-7	 	5433.30262	40.51884	 
940.0	1.0	0.0	8.11186	7.34421	-8.02124	15.88736	21.40379	1.38864	0.72013	159.68124	165.98003	59.59776	0.33966	 	3.085291173E7	 	1.91913E-7	 	5232.03188	40.25415	 
935.0	1.0	0.0	8.11483	7.34151	-8.05495	15.83457	21.33058	1.38766	0.72064	160.10656	166.20306	59.76592	0.33945	 	3.4975254E7	 	1.68596E-7	 	5032.02752	40.00087	 
930.0	1.0	0.0	8.11778	7.33885	-8.08838	15.78234	21.25834	1.38662	0.72118	160.52943	166.42568	59.93312	0.33924	 	3.968227175E7	 	1.47982E-7	 	4833.23603	39.7583	 
925.0	1.0	0.0	8.12071	7.3362	-8.12154	15.73065	21.187	1.3855	0.72176	160.95001	166.64789	60.09939	0.33903	 	4.506186446E7	 	1.29774E-7	 	4635.60621	39.52596	 
920.0	1.0	0.0	8.12362	7.33357	-8.15445	15.67946	21.11652	1.38433	0.72237	161.36843	166.86971	60.26481	0.33883	 	5.121591505E7	 	1.13704E-7	 	4439.0903	39.30318	 
915.0	1.0	0.0	8.12651	7.33096	-8.18712	15.62874	21.04685	1.38309	0.72302	161.78481	167.09115	60.42942	0.33863	 	5.826264077E7	 	9.95332E-8	 	4243.64265	39.08953	 
910.0	1.0	0.0	8.12938	7.32837	-8.21955	15.57846	20.97793	1.38179	0.7237	162.19928	167.31222	60.59327	0.33843	 	6.633935845E7	 	8.70473E-8	 	4049.22077	38.88438	 
905.0	1.0	0.0	8.13224	7.3258	-8.25174	15.52859	20.90974	1.38044	0.72441	162.61192	167.53292	60.75639	0.33823	 	7.560573826E7	 	7.60558E-8	 	3855.78401	38.68735	 
900.0	1.0	0.0	8.13507	7.32325	-8.28372	15.47911	20.84223	1.37904	0.72514	163.02284	167.75326	60.91884	0.33803	 	8.624764831E7	 	6.63885E-8	 	3663.29442	38.49792	 
895.0	1.0	0.0	8.13789	7.32071	-8.31549	15.42998	20.77537	1.37758	0.72591	163.43212	167.97324	61.08063	0.33784	 	9.848168417E7	 	5.78935E-8	 	3471.71641	38.3156	 
890.0	1.0	0.0	8.14069	7.31819	-8.34705	15.38119	20.70912	1.37607	0.72671	163.83984	168.19284	61.24181	0.33765	 	1.125605415E8	 	5.04355E-8	 	3281.01576	38.14013	 
885.0	1.0	0.0	8.14348	7.31569	-8.3784	15.3327	20.64346	1.37451	0.72753	164.24607	168.41208	61.40241	0.33746	 	1.287793532E8	 	4.3894E-8	 	3091.16072	37.97101	 
880.0	1.0	0.0	8.14625	7.3132	-8.40957	15.28451	20.57834	1.37291	0.72838	164.65087	168.63094	61.56245	0.33727	 	1.474832105E8	 	3.81619E-8	 	2902.12106	37.80793	 
875.0	1.0	0.0	8.149	7.31073	-8.44055	15.23658	20.51376	1.37126	0.72926	165.05431	168.84943	61.72195	0.33708	 	1.690760967E8	 	3.31439E-8	 	2713.8679	37.65063	 
870.0	1.0	0.0	8.15175	7.30827	-8.47134	15.1889	20.44967	1.36957	0.73016	165.45643	169.06752	61.88095	0.33689	 	1.94031482E8	 	2.87553E-8	 	2526.37538	37.4985	 
