T (C)	Fraction solid (wt)-TOTAL	Fraction liquid (wt)-LIQUID	Density (g/(cm)^3)-TOTAL	Molar volume (cm^3)-TOTAL	Volume change (%)-  	Average expansion coeff. (10e-6 1/K)-  	Thermal conductivity (W/(m*K))-TOTAL	Electrical resistivity (10e-6 Ohm*m)-TOTAL	Electrical conductivity (10e6 1/(Ohm*m))-TOTAL	Young's modulus (GPa)-TOTAL	Bulk modulus (GPa)-TOTAL	Shear modulus(GPa)-TOTAL	Poisson's ratio-TOTAL	Liquid viscosity (mPa s)-  	Total viscosity (mPa s)-  	Liquid diffusivity (10e-9 (m^2)/s)-  	Total diffusivity (10e-9 (m^2)/s)-  	Surface Tension (mN/m)-  	Enthalpy (J/mole)-TOTAL	Specific heat (J/(mole K))-TOTAL	Latent heat (J/mole)-TOTAL
1400.0	0.0	1.0	7.10218	7.96818	0.0	32.82328	28.40251	1.44326	0.69288	0.0	120.64221	0.0	0.5	6.79354	6.79354	1.20206	1.20206	1749.88331	43918.059	 	0.0
1395.0	0.0	1.0	7.10615	7.96373	-0.0558539	32.78878	28.32636	1.44281	0.69309	0.0	120.78695	0.0	0.5	6.86605	6.86605	1.18581	1.18581	1752.48254	43715.096	40.5926	0.0
1390.0	0.0	1.0	7.11011	7.9593	-0.11155	32.75446	28.2502	1.44237	0.6933	0.0	120.9317	0.0	0.5	6.93977	6.93977	1.1697	1.1697	1755.11005	43512.591	40.501	0.0
1385.0	0.0	1.0	7.11406	7.95487	-0.16709	32.72033	28.17405	1.44192	0.69352	0.0	121.07644	0.0	0.5	7.01474	7.01474	1.15372	1.15372	1757.76627	43310.539	40.4104	0.0
1380.0	0.0	1.0	7.11801	7.95046	-0.22247	32.68639	28.0979	1.44147	0.69374	0.0	121.22118	0.0	0.5	7.09098	7.09098	1.13787	1.13787	1760.45164	43108.94	40.3198	0.0
1375.0	0.0	1.0	7.12195	7.94606	-0.27769	32.65265	28.02175	1.44101	0.69396	0.0	121.36593	0.0	0.5	7.16851	7.16851	1.12216	1.12216	1763.16658	42907.791	40.2298	0.0
1370.0	0.0	1.0	7.12589	7.94167	-0.33275	32.61909	27.9456	1.44056	0.69418	0.0	121.51067	0.0	0.5	7.24738	7.24738	1.10658	1.10658	1765.9115	42707.088	40.1406	0.0
1365.0	0.0	1.0	7.12982	7.9373	-0.38765	32.58574	27.86945	1.4401	0.6944	0.0	121.65542	0.0	0.5	7.3276	7.3276	1.09114	1.09114	1768.68679	42506.83	40.0516	0.0
1360.0	0.0	1.0	7.13374	7.93293	-0.4424	32.55259	27.79329	1.43963	0.69462	0.0	121.80016	0.0	0.5	7.4092	7.4092	1.07582	1.07582	1771.49284	42307.015	39.963	0.0
1355.0	0.0	1.0	7.13765	7.92858	-0.49698	32.51963	27.71714	1.43917	0.69485	0.0	121.9449	0.0	0.5	7.49223	7.49223	1.06064	1.06064	1774.33001	42107.64	39.875	0.0
1350.0	0.0	1.0	7.14156	7.92425	-0.55141	32.48688	27.64099	1.4387	0.69507	0.0	122.08965	0.0	0.5	7.57671	7.57671	1.0456	1.0456	1777.19866	41908.703	39.7874	0.0
1345.0	0.0	1.0	7.14546	7.91992	-0.60568	32.45434	27.56484	1.43823	0.6953	0.0	122.23439	0.0	0.5	7.66267	7.66267	1.03068	1.03068	1780.09913	41710.201	39.7004	0.0
1340.0	0.0	1.0	7.14935	7.91561	-0.65979	32.422	27.48869	1.43776	0.69553	0.0	122.37914	0.0	0.5	7.75015	7.75015	1.0159	1.0159	1783.03173	41512.132	39.6138	0.0
1335.0	0.0	1.0	7.15323	7.91131	-0.71374	32.38988	27.41253	1.43729	0.69576	0.0	122.52388	0.0	0.5	7.83917	7.83917	1.00125	1.00125	1785.99677	41314.495	39.5274	0.0
1330.0	0.0	1.0	7.15711	7.90703	-0.76754	32.35797	27.33638	1.43681	0.69599	0.0	122.66862	0.0	0.5	7.92979	7.92979	0.98673	0.98673	1788.99453	41117.285	39.442	0.0
1325.0	0.0	1.0	7.16098	7.90275	-0.82118	32.32627	27.26023	1.43633	0.69622	0.0	122.81337	0.0	0.5	8.02203	8.02203	0.97234	0.97234	1792.02527	40920.503	39.3564	0.0
1320.0	0.0	1.0	7.16485	7.89849	-0.87465	32.29479	27.18408	1.43585	0.69645	0.0	122.95811	0.0	0.5	8.11594	8.11594	0.95809	0.95809	1795.08923	40724.144	39.2718	0.0
1319.66	0.0	1.0	7.16511	7.8982	-0.87826	32.29268	27.17894	1.43581	0.69647	0.0	122.96789	0.0	0.5	8.12234	8.12234	0.95713	0.95713	1795.29736	40710.898	39.22533	0.0
1315.0	0.1206	0.8794	7.19898	7.86108	-1.34421	31.04235	27.5458	1.41254	0.70794	0.0194577	123.73095	0.00655505	0.48417	8.22096	15.4875	0.94288	0.50049	1794.58222	38804.437	408.9091	1723.77
1310.0	0.22965	0.77035	7.23017	7.82713	-1.77022	29.90844	27.87762	1.39134	0.71873	0.26115	124.47171	0.0888448	0.46968	8.32965	92.48804	0.92765	0.0835455	1793.91907	37062.751	348.3372	3269.939
1305.0	0.32145	0.67855	7.25693	7.79823	-2.13298	28.95269	28.15656	1.3732	0.72822	1.02045	125.1498	0.3501	0.45735	8.44152	342.55575	0.91246	0.0224856	1793.35643	35577.676	297.015	4559.915
1300.0	0.39936	0.60064	7.28011	7.77338	-2.44484	28.14051	28.39251	1.35748	0.73666	2.47019	125.7792	0.85369	0.44677	8.55667	845.90522	0.89733	0.00907685	1792.8886	34298.809	255.7734	5644.099
1295.0	0.46602	0.53398	7.30034	7.75185	-2.71499	27.44623	28.59231	1.34371	0.74421	4.64393	126.37009	1.61513	0.43764	8.67527	1648.65122	0.88225	0.00464243	1792.50978	33187.109	222.34	6561.528
1290.0	0.52342	0.47658	7.31814	7.73291	-2.95264	26.84371	28.76117	1.33156	0.751	7.48396	126.92777	2.61733	0.42969	8.79732	2771.51561	0.86724	0.00275277	1792.21542	32212.037	195.0144	7342.741
1285.0	0.57318	0.42682	7.33392	7.71622	-3.16218	26.32085	28.9033	1.32077	0.75713	10.88381	127.45982	3.82491	0.42275	8.923	4219.256	0.85229	0.00180244	1791.99936	31349.481	172.5112	8011.845
1280.0	0.61653	0.38347	7.34799	7.70133	-3.34904	25.8622	29.02184	1.31116	0.76269	14.72089	127.96967	5.19567	0.41665	9.05245	5988.31564	0.8374	0.00126589	1791.85711	30580.247	153.8468	8588.036
1275.0	0.65451	0.34549	7.36063	7.68801	-3.51622	25.45947	29.1199	1.30253	0.76773	18.87633	128.46208	6.68775	0.41126	9.1858	8073.01257	0.82259	9.35975E-4	1791.78322	29888.926	138.2642	9086.718
1270.0	0.68795	0.31205	7.37204	7.67598	-3.66712	25.10301	29.19968	1.29478	0.77233	23.24186	128.93881	8.26243	0.40648	9.3232	10467.15083	0.80785	7.19559E-4	1791.77337	29263.061	125.173	9520.347
1265.0	0.71751	0.28249	7.38241	7.66505	-3.80428	24.78558	29.26356	1.28777	0.77654	27.72683	129.40233	9.88682	0.40221	9.46467	13167.37938	0.79319	5.70146E-4	1791.82332	28692.508	114.1106	9899.064
1260.0	0.74376	0.25624	7.39187	7.65508	-3.92939	24.50253	29.31326	1.28141	0.78039	32.25761	129.85471	11.53381	0.39839	9.61051	16174.01211	0.77862	4.62651E-4	1791.92853	28168.955	104.7106	10231.179
1255.0	0.76715	0.23285	7.40056	7.64592	-4.04434	24.24844	29.35041	1.27561	0.78394	36.77303	130.29683	13.18067	0.39496	9.7608	19489.24855	0.76413	3.82699E-4	1792.08545	27685.546	96.6818	10523.548
1250.0	0.78806	0.21194	7.40857	7.63744	-4.15078	24.01856	29.37652	1.27031	0.78721	41.23113	130.72985	14.81152	0.39186	9.9156	23121.74753	0.74974	3.21521E-4	1792.29078	27236.594	89.7904	10781.853
1245.0	0.80683	0.19317	7.41599	7.62959	-4.24933	23.81128	29.39281	1.26543	0.79024	45.59736	131.15545	16.41312	0.38905	10.07521	27082.88287	0.73544	2.73594E-4	1792.54034	26817.356	83.8476	11010.837
1240.0	0.82372	0.17628	7.42289	7.62226	-4.34129	23.62284	29.40031	1.26095	0.79306	49.84364	131.57369	17.97461	0.3865	10.23973	31385.18167	0.72124	2.35312E-4	1792.83161	26423.856	78.7	11214.472
1235.0	0.83898	0.16102	7.42934	7.61542	-4.42721	23.4517	29.40004	1.25679	0.79568	53.95855	131.986	19.49124	0.38417	10.40933	36051.04002	0.70714	2.0418E-4	1793.16094	26052.746	74.222	11396.107
1230.0	0.85278	0.14722	7.43539	7.60896	-4.5082	23.29464	29.39284	1.25293	0.79813	57.92988	132.39225	20.95803	0.38204	10.58418	41101.89352	0.69316	1.78495E-4	1793.52638	25701.189	70.3114	11558.574
1225.0	0.86531	0.13469	7.44109	7.60287	-4.58464	23.15062	29.37937	1.24934	0.80043	61.74781	132.79296	22.37091	0.38009	10.76446	46562.0716	0.67928	1.5704E-4	1793.92508	25366.777	66.8824	11704.281
1220.0	0.87672	0.12328	7.44647	7.5971	-4.65704	23.01818	29.36039	1.24597	0.80259	65.41689	133.18903	23.73113	0.37829	10.95039	52467.13249	0.66552	1.389E-4	1794.35446	25047.451	63.8652	11835.283
1215.0	0.88711	0.11289	7.45156	7.59162	-4.72583	22.89614	29.33631	1.24282	0.80462	68.92919	133.58033	25.03541	0.37663	11.14218	58845.78256	0.65187	1.23429E-4	1794.8125	24741.448	61.2006	11953.343
1210.0	0.89662	0.10338	7.45641	7.58638	-4.79162	22.78262	29.30779	1.23985	0.80655	72.29437	133.96727	26.28702	0.3751	11.33991	65742.15686	0.63835	1.1011E-4	1795.29764	24447.252	58.8392	12059.974
1205.0	0.90533	0.0946653	7.46103	7.58138	-4.8544	22.67778	29.27524	1.23704	0.80838	75.51373	134.35043	27.48612	0.37367	11.54399	73198.97601	0.62496	9.85599E-5	1795.80706	24163.552	56.74	12156.485
1200.0	0.91333	0.0866697	7.46545	7.57657	-4.91472	22.58	29.23899	1.23439	0.81012	78.5894	134.72959	28.63328	0.37234	11.75456	81261.63535	0.61168	8.84806E-5	1796.33993	23889.214	54.8676	12244.009
1195.0	0.92068	0.0793192	7.46969	7.57195	-4.97268	22.48901	29.19943	1.23186	0.81178	81.52914	135.10521	29.73114	0.37111	11.97186	89985.73821	0.59854	7.96312E-5	1796.89422	23623.251	53.1926	12323.529
1190.0	0.92745	0.0725461	7.47375	7.56749	-5.02867	22.40366	29.15685	1.22946	0.81337	84.3382	135.47724	30.7815	0.36995	12.19609	99429.86703	0.58554	7.18222E-5	1797.46904	23364.804	51.6894	12395.905
1185.0	0.9337	0.0662969	7.47768	7.56318	-5.08272	22.32386	29.11155	1.22717	0.81489	87.02147	135.84609	31.78596	0.36887	12.42759	109658.6604	0.57267	6.49002E-5	1798.06259	23113.119	50.337	12461.886
1180.0	0.93948	0.0605212	7.48146	7.55901	-5.13514	22.24872	29.06376	1.22497	0.81635	89.58627	136.21166	32.74715	0.36785	12.66658	120744.2133	0.55994	5.87396E-5	1798.67437	22867.537	49.1164	12522.13
1175.0	0.94482	0.0551756	7.48512	7.55495	-5.18604	22.17795	29.01371	1.22286	0.81776	92.03832	136.57415	33.66704	0.36689	12.91335	132765.593	0.54735	5.32371E-5	1799.30313	22627.478	48.0118	12577.216
1170.0	0.94978	0.0502218	7.48685	7.54843	-5.26783	22.00447	28.74055	1.23022	0.81286	94.91206	137.36254	34.7489	0.36568	13.16821	145808.3614	0.5349	4.83076E-5	1801.68154	22161.83553	93.12849	12627.655
1165.0	0.95438	0.0456234	7.49614	7.54109	-5.36002	21.79492	28.38972	1.24111	0.80573	98.05042	138.04764	35.94396	0.36393	13.4315	162969.4425	0.5226	4.3071E-5	1804.06089	21673.8983	97.58745	12673.896
1160.0	0.95865	0.0413525	7.50497	7.53377	-5.4519	21.58456	28.05933	1.25135	0.79913	101.05924	138.71606	37.09147	0.3623	13.70343	181956.4163	0.51045	3.84424E-5	1806.44212	21200.19097	94.74147	12716.339
1155.0	0.96307	0.0369347	7.51349	7.52631	-5.54553	21.36647	27.75379	1.26072	0.7932	104.15167	139.38137	38.27142	0.3607	13.97408	203321.3141	0.49881	3.42829E-5	1808.82255	20729.62662	94.11287	12765.727
1150.0	0.96771	0.0322868	7.5217	7.51868	-5.64119	21.13962	27.4701	1.26928	0.78785	107.37094	140.04605	39.50019	0.35912	14.24814	227436.7141	0.48751	3.05405E-5	1811.20345	20262.9511	93.3351	12821.013
1145.0	0.97198	0.0280177	7.52948	7.51119	-5.73527	20.91607	27.1992	1.27742	0.78283	110.43777	140.70124	40.67237	0.35765	14.52703	254069.269	0.47647	2.72431E-5	1813.58675	19810.83375	90.42347	12871.264
1140.0	0.97536	0.0246371	7.53679	7.50402	-5.82529	20.70432	26.93027	1.28562	0.77783	113.17103	141.37392	41.71911	0.35635	14.86117	283050.5385	0.46411	2.43675E-5	1815.96496	19360.38585	90.08958	12929.139
1135.0	0.97812	0.0218828	7.54361	7.49725	-5.91019	20.5081	26.67202	1.29348	0.77311	115.61136	142.02916	42.65533	0.35518	15.21989	314635.7269	0.45157	2.18438E-5	1818.3457	18923.03525	87.47012	12983.008
1130.0	0.9805	0.019499	7.54999	7.49081	-5.991	20.32414	26.42778	1.3008	0.76876	117.84535	142.6569	43.51353	0.35412	15.58531	349237.754	0.43942	1.96096E-5	1820.73369	18502.34984	84.13708	13029.119
1125.0	0.98258	0.0174162	7.556	7.48467	-6.06813	20.15115	26.19658	1.3076	0.76476	119.90381	143.26052	44.30518	0.35316	15.95793	387194.2453	0.42763	1.76243E-5	1823.1286	18096.68542	81.13288	13068.944
1120.0	0.98551	0.0144934	7.56176	7.47812	-6.1503	19.95915	25.98429	1.31357	0.76128	122.32716	143.85255	45.23546	0.35212	16.32212	430503.5743	0.41659	1.57946E-5	1825.53174	17701.47544	79.042	13106.876
1115.0	0.98879	0.0112065	7.56721	7.47136	-6.23511	19.75623	25.78587	1.31893	0.75819	124.9143	144.43549	46.22832	0.35106	16.68446	479256.4214	0.40608	1.41369E-5	1827.94288	17316.8679	76.92151	13142.594
1110.0	0.99196	0.00804275	7.57234	7.46468	-6.31898	19.55471	25.59735	1.32386	0.75537	127.43674	145.00618	47.19699	0.35005	17.05491	533295.538	0.39583	1.26587E-5	1830.36136	16943.6805	74.63748	13175.091
1105.0	0.99487	0.00512894	7.57716	7.45816	-6.40076	19.35867	25.41744	1.32841	0.75278	129.83218	145.56341	48.11766	0.34911	17.43949	592919.9604	0.3857	1.13445E-5	1832.78672	16581.64414	72.40727	13204.43
1100.0	0.99755	0.00245258	7.58168	7.45182	-6.48036	19.16848	25.24553	1.3326	0.75041	132.10133	146.10704	48.99049	0.34823	17.83848	658674.9537	0.3757	1.0175E-5	1835.21996	16230.29547	70.26973	13230.846
1095.0	1.0	0.0	7.58594	7.44565	-6.55774	18.98435	25.08191	1.33641	0.74827	134.2468	146.6371	49.81639	0.34742	 	731170.0523	 	9.13276E-6	 	15889.16052	68.22699	13254.565
1090.0	1.0	0.0	7.59055	7.44113	-6.61444	18.87198	24.91815	1.34028	0.74612	135.05681	147.04552	50.13536	0.34692	 	809359.3846	 	8.22032E-6	 	15576.33731	62.56464	 
1085.0	1.0	0.0	7.59505	7.43672	-6.66978	18.76341	24.76271	1.34374	0.74419	135.83937	147.4412	50.4436	0.34645	 	896636.4833	 	7.39295E-6	 	15279.34794	59.39787	 
1080.0	1.0	0.0	7.59945	7.43242	-6.72382	18.65848	24.61498	1.34683	0.74248	136.59615	147.82512	50.74176	0.34599	 	994107.5384	 	6.64354E-6	 	14988.85968	58.09765	 
1075.0	1.0	0.0	7.60375	7.42821	-6.77662	18.55702	24.47438	1.34956	0.74098	137.32881	148.19819	51.03046	0.34556	 	1103020.127	 	5.96543E-6	 	14704.56023	56.85989	 
1070.0	1.0	0.0	7.60796	7.4241	-6.82823	18.45886	24.34032	1.35196	0.73967	138.03898	148.56128	51.31034	0.34514	 	1224782.852	 	5.35244E-6	 	14426.1314	55.68577	 
1065.0	1.0	0.0	7.61209	7.42007	-6.87874	18.36382	24.21228	1.35405	0.73852	138.72823	148.91521	51.58201	0.34473	 	1360987.806	 	4.79885E-6	 	14153.25392	54.5755	 
1060.0	1.0	0.0	7.61613	7.41613	-6.92819	18.27171	24.08975	1.35585	0.73754	139.3981	149.26076	51.84606	0.34435	 	1513436.332	 	4.29934E-6	 	13885.6118	53.52842	 
1055.0	1.0	0.0	7.6201	7.41227	-6.97665	18.18235	23.97227	1.35739	0.73671	140.05001	149.59863	52.10305	0.34397	 	1684168.526	 	3.849E-6	 	13622.896	52.54316	 
1050.0	1.0	0.0	7.624	7.40849	-7.02417	18.09557	23.85941	1.35867	0.73601	140.68533	149.92948	52.35351	0.34361	 	1875497.082	 	3.44334E-6	 	13364.80756	51.61769	 
1045.0	1.0	0.0	7.62782	7.40477	-7.07082	18.01119	23.75078	1.35973	0.73544	141.30533	150.25392	52.59793	0.34326	 	2090046.144	 	3.07819E-6	 	13111.05979	50.74956	 
1040.0	1.0	0.0	7.63159	7.40112	-7.11664	17.92906	23.64601	1.36058	0.73498	141.9112	150.57248	52.83679	0.34292	 	2330795.954	 	2.74977E-6	 	12861.37986	49.93598	 
1035.0	1.0	0.0	7.63529	7.39753	-7.16169	17.84902	23.54478	1.36122	0.73463	142.50402	150.88568	53.0705	0.34259	 	2601134.217	 	2.4546E-6	 	12615.50988	49.174	 
1030.0	1.0	0.0	7.63894	7.394	-7.20601	17.77092	23.44679	1.36169	0.73438	143.08482	151.19396	53.29948	0.34227	 	2904915.207	 	2.18951E-6	 	12373.20729	48.46052	 
1025.0	1.0	0.0	7.64253	7.39052	-7.24964	17.69462	23.35177	1.36198	0.73422	143.65452	151.49773	53.52407	0.34196	 	3246528.013	 	1.95161E-6	 	12134.24507	47.79244	 
1020.0	1.0	0.0	7.64607	7.38709	-7.29264	17.62	23.25805	1.3622	0.73411	144.21398	151.79736	53.74463	0.34166	 	3630975.129	 	1.73825E-6	 	11898.41146	47.16672	 
1015.0	1.0	0.0	7.64957	7.38372	-7.33504	17.54692	23.16824	1.3622	0.73411	144.76397	152.09318	53.96145	0.34136	 	4063963.409	 	1.54705E-6	 	11665.50904	46.58048	 
1010.0	1.0	0.0	7.65303	7.38038	-7.37686	17.47527	23.08072	1.36205	0.73419	145.30521	152.38549	54.17481	0.34108	 	4552009.176	 	1.37582E-6	 	11435.35472	46.03087	 
1005.0	1.0	0.0	7.65644	7.37709	-7.41816	17.40496	22.99534	1.36178	0.73433	145.83835	152.67455	54.38499	0.3408	 	5102559.874	 	1.22259E-6	 	11207.77872	45.5152	 
1000.0	1.0	0.0	7.65982	7.37384	-7.45895	17.33588	22.91191	1.3614	0.73454	146.36397	152.96061	54.59219	0.34052	 	5724135.002	 	1.08557E-6	 	10982.62381	45.03098	 
995.0	1.0	0.0	7.66315	7.37063	-7.49926	17.26793	22.8303	1.3609	0.73481	146.88262	153.24388	54.79665	0.34025	 	6426489.772	 	9.63127E-7	 	10759.74451	44.57586	 
990.0	1.0	0.0	7.66646	7.36745	-7.53913	17.20104	22.75037	1.36029	0.73514	147.39479	153.52455	54.99856	0.33999	 	7220804.872	 	8.538E-7	 	10539.00621	44.14766	 
985.0	1.0	0.0	7.66973	7.36431	-7.57858	17.13513	22.672	1.35959	0.73551	147.90093	153.80279	55.19809	0.33973	 	8119907.166	 	7.56255E-7	 	10320.28441	43.74436	 
980.0	1.0	0.0	7.67297	7.3612	-7.61762	17.07011	22.59508	1.3588	0.73594	148.40145	154.07877	55.3954	0.33947	 	9138526.65	 	6.69289E-7	 	10103.46394	43.36409	 
975.0	1.0	0.0	7.67618	7.35812	-7.65628	17.00593	22.51952	1.35792	0.73642	148.89671	154.35263	55.59065	0.33922	 	1.029359532E7	 	5.91816E-7	 	9888.43821	43.00515	 
970.0	1.0	0.0	7.67937	7.35507	-7.69458	16.94252	22.44521	1.35696	0.73694	149.38706	154.62447	55.78396	0.33898	 	1.160459595E7	 	5.22854E-7	 	9675.10854	42.66593	 
965.0	1.0	0.0	7.68253	7.35204	-7.73254	16.87981	22.37208	1.35592	0.73751	149.87281	154.89443	55.97546	0.33874	 	1.309396927E7	 	4.61518E-7	 	9463.38351	42.34501	 
960.0	1.0	0.0	7.68566	7.34904	-7.77017	16.81776	22.30006	1.3548	0.73811	150.35424	155.16261	56.16527	0.3385	 	1.478758929E7	 	4.0701E-7	 	9253.17839	42.04102	 
955.0	1.0	0.0	7.68877	7.34607	-7.80749	16.75632	22.22907	1.35362	0.73876	150.8316	155.42908	56.35349	0.33826	 	1.671531963E7	 	3.58611E-7	 	9044.41455	41.75277	 
950.0	1.0	0.0	7.69186	7.34312	-7.84451	16.69542	22.15906	1.35237	0.73944	151.30515	155.69394	56.54021	0.33803	 	1.891166506E7	 	3.15672E-7	 	8837.01896	41.47912	 
945.0	1.0	0.0	7.69493	7.34019	-7.88124	16.63504	22.08997	1.35105	0.74016	151.77508	155.95726	56.72551	0.3378	 	2.141653465E7	 	2.77612E-7	 	8630.92381	41.21903	 
940.0	1.0	0.0	7.69798	7.33729	-7.91771	16.57513	22.02174	1.34967	0.74092	152.2416	156.21911	56.90948	0.33758	 	2.427613824E7	 	2.43906E-7	 	8426.06595	40.97157	 
935.0	1.0	0.0	7.701	7.3344	-7.95391	16.51565	21.95434	1.34824	0.74171	152.7049	156.47955	57.09219	0.33735	 	2.754403863E7	 	2.14082E-7	 	8222.38663	40.73586	 
930.0	1.0	0.0	7.70401	7.33154	-7.98985	16.45656	21.8877	1.34675	0.74253	153.16513	156.73863	57.2737	0.33713	 	3.128239021E7	 	1.87718E-7	 	8019.83108	40.51111	 
925.0	1.0	0.0	7.707	7.32869	-8.02556	16.39783	21.8218	1.3452	0.74338	153.62245	156.9964	57.45408	0.33692	 	3.556339655E7	 	1.64435E-7	 	7818.34819	40.29658	 
920.0	1.0	0.0	7.70998	7.32587	-8.06104	16.33943	21.75661	1.3436	0.74427	154.077	157.2529	57.63338	0.3367	 	4.04710291E7	 	1.43892E-7	 	7617.89026	40.09159	 
915.0	1.0	0.0	7.71294	7.32306	-8.09629	16.28132	21.69207	1.34195	0.74518	154.52891	157.50819	57.81165	0.33649	 	4.610305546E7	 	1.25785E-7	 	7418.41273	39.89551	 
910.0	1.0	0.0	7.71588	7.32027	-8.13132	16.22349	21.62816	1.34025	0.74613	154.9783	157.76228	57.98895	0.33627	 	5.257343635E7	 	1.0984E-7	 	7219.87386	39.70777	 
905.0	1.0	0.0	7.7188	7.31749	-8.16615	16.16589	21.56486	1.3385	0.7471	155.42528	158.01523	58.16531	0.33607	 	6.001516042E7	 	9.58134E-8	 	7022.23465	39.52784	 
900.0	1.0	0.0	7.72171	7.31473	-8.20077	16.10852	21.50214	1.33671	0.7481	155.86994	158.26705	58.34077	0.33586	 	6.858360241E7	 	8.34872E-8	 	6825.45849	39.35523	 
895.0	1.0	0.0	7.72461	7.31199	-8.23519	16.05133	21.43996	1.33488	0.74913	156.31238	158.51778	58.51538	0.33565	 	7.846050578E7	 	7.26665E-8	 	6629.51112	39.18947	 
890.0	1.0	0.0	7.72749	7.30926	-8.26943	15.99432	21.37832	1.33299	0.75019	156.75268	158.76743	58.68916	0.33545	 	8.985870844E7	 	6.31775E-8	 	6434.36034	39.03016	 
885.0	1.0	0.0	7.73036	7.30655	-8.30348	15.93746	21.31718	1.33107	0.75127	157.19093	159.01604	58.86215	0.33525	 	1.030277631E8	 	5.48652E-8	 	6239.97595	38.87688	 
880.0	1.0	0.0	7.73322	7.30385	-8.33735	15.88073	21.25652	1.32911	0.75239	157.62719	159.26362	59.03437	0.33505	 	1.182606244E8	 	4.75918E-8	 	6046.3292	38.72935	 
875.0	1.0	0.0	7.73606	7.30116	-8.37105	15.82411	21.19633	1.3271	0.75352	158.06153	159.5102	59.20586	0.33485	 	1.359016219E8	 	4.12345E-8	 	5853.39336	38.58717	 
870.0	1.0	0.0	7.7389	7.29849	-8.40458	15.76759	21.13659	1.32506	0.75468	158.49401	159.75578	59.37663	0.33465	 	1.563559601E8	 	3.56842E-8	 	5661.144	38.44987	 
866.82	1.0	0.0	7.74069	7.2968	-8.42582	15.73166	21.0988	1.32373	0.75544	158.76831	159.91157	59.48496	0.33452	 	1.710537454E8	 	3.25272E-8	 	5539.13713	 	 
865.0	1.0	0.0	7.74169	7.29585	-8.43769	15.71223	21.08119	1.32273	0.75601	158.90126	159.9655	59.53846	0.33444	 	1.80109659E8	 	3.08425E-8	 	5455.71792	41.08521	 
