T (C)	Fraction solid (wt)-TOTAL	Fraction liquid (wt)-LIQUID	Density (g/(cm)^3)-TOTAL	Molar volume (cm^3)-TOTAL	Volume change (%)-  	Average expansion coeff. (10e-6 1/K)-  	Thermal conductivity (W/(m*K))-TOTAL	Electrical resistivity (10e-6 Ohm*m)-TOTAL	Electrical conductivity (10e6 1/(Ohm*m))-TOTAL	Young's modulus (GPa)-TOTAL	Bulk modulus (GPa)-TOTAL	Shear modulus(GPa)-TOTAL	Poisson's ratio-TOTAL	Liquid viscosity (mPa s)-  	Total viscosity (mPa s)-  	Liquid diffusivity (10e-9 (m^2)/s)-  	Total diffusivity (10e-9 (m^2)/s)-  	Surface Tension (mN/m)-  	Enthalpy (J/mole)-TOTAL	Specific heat (J/(mole K))-TOTAL	Latent heat (J/mole)-TOTAL
700.0	0.00401	0.99599	1.67493	15.42833	0.0	54.72918	81.18945	0.29366	3.40529	5.5355E-11	23.76986	1.8454E-11	0.49981	1.2706	1.2706	3.73815	3.73815	543.45823	27153.809	 	0.0
695.0	0.00413	0.99587	1.67626	15.41606	-0.0795095	54.6982	80.84124	0.29341	3.40819	6.31369E-11	23.84067	2.10484E-11	0.4998	1.28534	1.28534	3.6763	3.6763	545.19793	26980.14	34.7338	1.18
690.0	0.00426	0.99574	1.67758	15.40399	-0.15773	54.67391	80.49387	0.29315	3.41117	7.16401E-11	23.91171	2.38832E-11	0.4998	1.30041	1.30041	3.61495	3.61495	546.9377	26806.462	34.7356	2.347
685.0	0.00438	0.99562	1.6789	15.39183	-0.2366	54.64565	80.14578	0.2929	3.41414	8.08722E-11	23.98252	2.69611E-11	0.49979	1.31581	1.31581	3.55408	3.55408	548.67753	26632.776	34.7372	3.5
680.0	0.00451	0.99549	1.68021	15.37988	-0.31403	54.62505	79.79862	0.29264	3.41718	9.09132E-11	24.05359	3.03087E-11	0.49979	1.33157	1.33157	3.4937	3.4937	550.41742	26459.082	34.7388	4.639
675.0	0.00463	0.99537	1.68152	15.36782	-0.39218	54.60011	79.45069	0.29238	3.42022	1.01739E-10	24.12442	3.39178E-11	0.49978	1.34768	1.34768	3.43381	3.43381	552.15739	26285.38	34.7404	5.764
670.0	0.00475	0.99525	1.68283	15.35599	-0.46888	54.58303	79.10371	0.29211	3.42334	1.13402E-10	24.19551	3.78063E-11	0.49978	1.36417	1.36417	3.37442	3.37442	553.89741	26111.67	34.742	6.875
665.0	0.00487	0.99513	1.68413	15.34405	-0.54629	54.56161	78.75594	0.29185	3.42645	1.25931E-10	24.26636	4.19835E-11	0.49977	1.38104	1.38104	3.31553	3.31553	555.6375	25937.951	34.7438	7.972
660.0	0.00498	0.99502	1.68543	15.33216	-0.62334	54.54191	78.40825	0.29158	3.42961	1.39352E-10	24.33722	4.6458E-11	0.49976	1.39831	1.39831	3.25713	3.25713	557.37766	25764.225	34.7452	9.054
655.0	0.0051	0.9949	1.68673	15.32034	-0.69996	54.5245	78.06071	0.29131	3.4328	1.53646E-10	24.4081	5.12235E-11	0.49976	1.41599	1.41599	3.19923	3.19923	559.11788	25590.492	34.7466	10.123
650.0	0.00521	0.99479	1.68803	15.30871	-0.77529	54.51441	77.71398	0.29103	3.43606	1.68872E-10	24.47922	5.63E-11	0.49976	1.43408	1.43408	3.14184	3.14184	560.85817	25416.75	34.7484	11.178
645.0	0.00533	0.99467	1.68932	15.29701	-0.85118	54.50078	77.36659	0.29075	3.43933	1.85052E-10	24.55012	6.16944E-11	0.49975	1.45262	1.45262	3.08495	3.08495	562.59777	25243.327	34.6846	12.218
640.0	0.00544	0.99456	1.6906	15.28534	-0.92677	54.48878	77.01923	0.29048	3.44263	2.02206E-10	24.62101	6.74137E-11	0.49974	1.4716	1.4716	3.02857	3.02857	564.33824	25070.578	34.5498	13.246
636.69	0.00551	0.99449	1.69145	15.27766	-0.97659	54.48197	76.78941	0.29029	3.44484	2.14089E-10	24.66793	7.13752E-11	0.49974	1.48442	1.48442	2.99154	2.99154	565.49006	24956.627	34.4386	13.917
636.69	0.00551	0.99449	1.69145	15.27766	-0.97659	54.48197	76.78941	0.29029	3.44484	2.14089E-10	24.66794	7.13752E-11	0.49974	1.48442	1.48442	2.99154	2.99154	565.49006	24956.651	 	13.894
635.0	0.0669402	0.93306	1.6958	15.23848	-1.23055	53.09146	79.97008	0.27822	3.59421	3.8497E-4	24.72455	1.29239E-4	0.48938	1.49223	1.66722	2.97036	2.65859	566.16828	24362.624	351.236	550.131
630.0	0.23092	0.76908	1.70759	15.13325	-1.9126	49.35588	89.23537	0.24796	4.03284	0.0729439	24.91294	0.0249592	0.46127	1.51895	9.48616	2.90203	0.46468	568.26907	22755.207	321.483	1987.12
625.0	0.35171	0.64829	1.71658	15.05381	-2.42749	46.58965	97.44267	0.22582	4.42827	0.41852	25.09539	0.1453	0.44017	1.5482	47.4972	2.83145	0.0922927	570.42923	21528.945	245.252	3043.585
620.0	0.44059	0.55941	1.72345	14.99351	-2.8183	44.5491	104.66772	0.20906	4.78324	1.06915	25.27108	0.3753	0.4244	1.57911	125.95609	2.76058	0.0346092	572.62302	20586.418	188.505	3816.938
615.0	0.5074	0.4926	1.72882	14.94632	-3.12417	43.00704	110.76543	0.19645	5.0904	1.93052	25.44075	0.68343	0.41237	1.61119	242.63447	2.69045	0.0178657	574.83558	19840.659	149.152	4394.134
610.0	0.55899	0.44101	1.73315	14.90828	-3.37075	41.8139	116.14812	0.18629	5.36799	2.90231	25.60572	1.03435	0.40296	1.64423	392.93148	2.62155	0.0109699	577.05879	19230.856	121.961	4835.977
605.0	0.59984	0.40016	1.73672	14.87664	-3.57579	40.86537	120.76126	0.17816	5.61297	3.91483	25.7669	1.40276	0.39541	1.67812	573.88873	2.55407	0.0074684	579.28815	18716.827	102.806	5182.637
600.0	0.63294	0.36706	1.73976	14.84969	-3.75052	40.09556	124.717	0.17153	5.83003	4.92532	25.92494	1.77271	0.38921	1.71281	784.53803	2.4881	0.00543202	581.52111	18272.027	88.96	5460.653
595.0	0.66029	0.33971	1.74239	14.82612	-3.90325	39.45509	128.12172	0.16601	6.02368	5.91074	26.0802	2.13537	0.38401	1.74829	1025.77637	2.42364	0.00413075	583.7562	17878.581	78.6892	5687.89
590.0	0.68325	0.31675	1.74471	14.80524	-4.03862	38.91711	131.06502	0.16135	6.19776	6.85871	26.23316	2.4858	0.37958	1.78458	1299.78881	2.36068	0.00324116	585.99248	17524.151	70.886	5876.675
589.86	0.68384	0.31616	1.74477	14.8047	-4.04209	38.90398	131.14162	0.16123	6.20238	6.88455	26.23741	2.49536	0.37947	1.7856	1307.926	2.35895	0.00322047	586.05465	17514.773	 	5881.453
585.0	0.90696	0.0930379	1.7629	14.64623	-5.06926	32.44997	133.73353	0.15721	6.36079	19.28852	25.86297	7.21084	0.33747	1.83379	3865.5259	2.28402	0.00108353	588.27773	15607.123	383.406	7628.616
580.0	0.94978	0.0502156	1.76717	14.60919	-5.30932	31.14071	136.14105	0.15353	6.51325	23.0351	25.89993	8.66554	0.32912	1.88114	5045.43891	2.21356	8.25302E-4	590.55944	15119.5	97.5246	7951.7
575.0	0.96723	0.0327684	1.76941	14.58977	-5.43519	30.57638	137.61446	0.151	6.62255	24.8104	25.99303	9.35861	0.32554	1.92771	5971.71664	2.14742	6.93203E-4	592.83592	14829.326	58.0348	8077.875
570.64	0.97564	0.0243583	1.7708	14.57767	-5.5136	30.28869	138.40624	0.14936	6.69508	25.77115	26.08865	9.73458	0.32369	1.96822	6748.65177	2.09242	6.10244E-4	594.81805	14629.029	 	8135.571
570.0	0.97669	0.0233132	1.77099	14.57606	-5.52406	30.2531	138.50945	0.14914	6.70515	25.89671	26.10333	9.78375	0.32345	1.97432	6866.58464	2.08437	5.99309E-4	595.10932	14600.908	45.6836	8142.825
565.0	0.98314	0.0168557	1.77227	14.56455	-5.59863	30.02194	139.14516	0.14758	6.77611	26.71949	26.2207	10.10622	0.32193	2.02216	7818.29667	2.02299	5.23234E-4	597.38548	14394.786	41.2244	8186.003
560.0	0.98736	0.0126369	1.77337	14.55467	-5.66269	29.85912	139.52474	0.1463	6.83537	27.33068	26.34136	10.34604	0.32083	2.07031	8839.63134	1.96415	4.60019E-4	599.65808	14206.613	37.6346	8211.748
555.0	0.99033	0.00967106	1.77435	14.54571	-5.72079	29.7349	139.74925	0.14519	6.8877	27.8211	26.46335	10.53863	0.31996	2.11897	9961.34814	1.90752	4.05768E-4	601.92776	14028.599	35.6028	8227.841
550.0	0.99252	0.00747523	1.77526	14.53732	-5.77517	29.6346	139.87311	0.14418	6.93568	28.2359	26.5857	10.70167	0.31923	2.16833	11208.50089	1.85285	3.58441E-4	604.19498	13856.945	34.3308	8238.075
545.0	0.99421	0.00578529	1.77612	14.52931	-5.82707	29.54998	139.92741	0.14325	6.98078	28.60021	26.70783	10.84496	0.31859	2.21848	12605.3393	1.79996	3.16785E-4	606.46006	13689.579	33.4732	8244.514
540.0	0.99555	0.00444562	1.77695	14.52157	-5.87721	29.47636	139.93253	0.14237	7.02396	28.92925	26.82946	10.97448	0.31802	2.26957	14177.55258	1.74869	2.79934E-4	608.72318	13525.275	32.8608	8248.376
535.0	0.99664	0.00335802	1.77774	14.51404	-5.92606	29.41066	139.90141	0.14153	7.06584	29.23242	26.95038	11.0939	0.3175	2.32167	15953.37196	1.69894	2.47244E-4	610.98458	13363.262	32.4026	8250.425
530.0	0.99754	0.00245767	1.77852	14.50665	-5.97393	29.35088	139.84328	0.14071	7.10688	29.51626	27.07047	11.20579	0.31701	2.37486	17964.92522	1.65061	2.18202E-4	613.24433	13203.031	32.0462	8251.163
525.0	0.9983	0.00169961	1.77929	14.49938	-6.02102	29.29564	139.76468	0.13991	7.14738	29.77548	27.18957	11.30819	0.31655	2.42924	20248.7068	1.60362	1.92386E-4	615.50264	13044.232	31.7598	8250.933
520.0	0.99895	0.00105144	1.78004	14.49221	-6.0675	29.24387	139.67188	0.13913	7.18766	30.03567	27.30774	11.41085	0.3161	2.48486	22847.28446	1.5579	1.69437E-4	617.75961	12886.617	31.523	8249.977
515.0	0.99951	4.90132E-4	1.78078	14.48512	-6.11347	29.19491	139.56566	0.13836	7.22776	30.2858	27.42487	11.50962	0.31567	2.54181	25809.76448	1.51339	1.49043E-4	620.01524	12730.006	31.3222	8248.468
510.0	1.0	0.0	1.78152	14.47809	-6.15902	29.14814	139.45064	0.13759	7.26791	30.52768	27.54094	11.6052	0.31526	 	29193.4475	 	1.30932E-4	 	12574.262	31.1488	8246.535
505.0	1.0	0.0	1.78237	14.47111	-6.20428	29.10266	139.2397	0.13692	7.30354	30.70982	27.65639	11.67734	0.31493	 	33009.74546	 	1.15056E-4	 	12370.467	40.759	 
500.0	1.0	0.0	1.78323	14.46415	-6.24941	29.05718	139.02869	0.13625	7.33964	30.89111	27.77067	11.74919	0.31461	 	37384.28583	 	1.0094E-4	 	12219.261	30.2412	 
495.0	1.0	0.0	1.78409	14.4572	-6.29442	29.0117	138.81759	0.13557	7.37619	31.07155	27.88379	11.82076	0.31428	 	42407.20016	 	8.84083E-5	 	12068.385	30.1752	 
490.0	1.0	0.0	1.78494	14.45028	-6.33931	28.96623	138.60642	0.13489	7.41323	31.25115	27.99576	11.89203	0.31395	 	48184.52028	 	7.73017E-5	 	11917.827	30.1116	 
485.0	1.0	0.0	1.7858	14.44337	-6.38407	28.92075	138.39517	0.13421	7.45074	31.4299	28.10657	11.96303	0.31363	 	54841.2192	 	6.74737E-5	 	11767.582	30.049	 
480.0	1.0	0.0	1.78665	14.43649	-6.42871	28.87527	138.18384	0.13353	7.48876	31.60781	28.21625	12.03373	0.3133	 	62524.87849	 	5.87916E-5	 	11617.647	29.987	 
475.0	1.0	0.0	1.7875	14.42962	-6.47323	28.82979	137.97243	0.13285	7.52727	31.78487	28.32479	12.10415	0.31297	 	71410.12048	 	5.11347E-5	 	11468.02	29.9254	 
470.0	1.0	0.0	1.78835	14.42277	-6.51763	28.78431	137.76095	0.13216	7.5663	31.96108	28.4322	12.17428	0.31265	 	81703.97628	 	4.43936E-5	 	11318.701	29.8638	 
465.0	1.0	0.0	1.7892	14.41594	-6.5619	28.73884	137.54939	0.13148	7.60585	32.13646	28.53848	12.24413	0.31232	 	93652.40126	 	3.84691E-5	 	11169.688	29.8026	 
460.0	1.0	0.0	1.79004	14.40913	-6.60605	28.69336	137.33776	0.13079	7.64594	32.31098	28.64365	12.31369	0.31199	 	107548.2007	 	3.32718E-5	 	11020.978	29.742	 
455.0	1.0	0.0	1.79089	14.40233	-6.65008	28.64789	137.12605	0.1301	7.68658	32.48467	28.74771	12.38296	0.31167	 	123740.6929	 	2.87207E-5	 	10872.572	29.6812	 
450.0	1.0	0.0	1.79173	14.39556	-6.69398	28.60241	136.91428	0.1294	7.72777	32.65751	28.85067	12.45195	0.31134	 	142647.5173	 	2.47429E-5	 	10724.468	29.6208	 
445.0	1.0	0.0	1.79257	14.3888	-6.73776	28.55694	136.70243	0.12871	7.76953	32.82952	28.95253	12.52065	0.31102	 	164769.0973	 	2.12729E-5	 	10576.663	29.561	 
440.0	1.0	0.0	1.79341	14.38207	-6.78142	28.51146	136.49051	0.12801	7.81188	33.00068	29.0533	12.58906	0.31069	 	190706.3987	 	1.82517E-5	 	10429.158	29.501	 
435.0	1.0	0.0	1.79425	14.37535	-6.82496	28.46599	136.27852	0.12731	7.85482	33.171	29.15298	12.65718	0.31036	 	221182.7849	 	1.56265E-5	 	10281.95	29.4416	 
430.0	1.0	0.0	1.79508	14.36865	-6.86837	28.42051	136.06646	0.12661	7.89836	33.34048	29.25158	12.72502	0.31004	 	257070.9836	 	1.335E-5	 	10135.039	29.3822	 
425.0	1.0	0.0	1.79592	14.36197	-6.91166	28.37504	135.85433	0.1259	7.94253	33.50912	29.34911	12.79257	0.30971	 	299426.4426	 	1.13801E-5	 	9988.423	29.3232	 
420.0	1.0	0.0	1.79675	14.35531	-6.95483	28.32957	135.64214	0.1252	7.98732	33.67692	29.44557	12.85984	0.30938	 	349528.6964	 	9.67901E-6	 	9842.101	29.2644	 
415.0	1.0	0.0	1.79758	14.34867	-6.99787	28.28409	135.42988	0.12449	8.03277	33.84388	29.54097	12.92682	0.30906	 	408932.8026	 	8.2133E-6	 	9696.071	29.206	 
410.0	1.0	0.0	1.79841	14.34205	-7.04079	28.23862	135.21756	0.12378	8.07888	34.01001	29.63532	12.99351	0.30873	 	479533.47	 	6.95319E-6	 	9550.33	29.1482	 
405.0	1.0	0.0	1.79924	14.33545	-7.08359	28.19315	135.00517	0.12307	8.12566	34.17529	29.72861	13.05992	0.3084	 	563645.2317	 	5.87228E-6	 	9404.876	29.0908	 
400.0	1.0	0.0	1.80007	14.32886	-7.12627	28.14768	134.79273	0.12235	8.17313	34.33974	29.82086	13.12603	0.30808	 	664102.9562	 	4.94724E-6	 	9259.708	29.0336	 
395.0	1.0	0.0	1.80089	14.3223	-7.16882	28.10221	134.58022	0.12164	8.22131	34.50336	29.91208	13.19187	0.30775	 	784388.2173	 	4.15747E-6	 	9114.824	28.9768	 
390.0	1.0	0.0	1.80172	14.31575	-7.21125	28.05674	134.36766	0.12092	8.27022	34.66613	30.00226	13.25741	0.30742	 	928788.6391	 	3.48483E-6	 	8970.223	28.9202	 
385.0	1.0	0.0	1.80254	14.30923	-7.25356	28.01127	134.15503	0.12019	8.31986	34.82807	30.09141	13.32267	0.3071	 	1102599.42	 	2.91336E-6	 	8825.904	28.8638	 
380.0	1.0	0.0	1.80336	14.30272	-7.29574	27.9658	133.94236	0.11947	8.37026	34.98918	30.17954	13.38764	0.30677	 	1312378.976	 	2.42907E-6	 	8681.864	28.808	 
375.0	1.0	0.0	1.80418	14.29623	-7.3378	27.92033	133.72962	0.11874	8.42143	35.14945	30.26666	13.45232	0.30645	 	1566274.243	 	2.01974E-6	 	8538.103	28.7522	 
370.0	1.0	0.0	1.805	14.28976	-7.37974	27.87486	133.51684	0.11802	8.4734	35.30888	30.35276	13.51671	0.30612	 	1874435.943	 	1.67467E-6	 	8394.618	28.697	 
365.0	1.0	0.0	1.80581	14.28331	-7.42156	27.82939	133.304	0.11729	8.52618	35.46749	30.43786	13.58082	0.30579	 	2249550.399	 	1.38457E-6	 	8251.41	28.6416	 
360.0	1.0	0.0	1.80662	14.27687	-7.46325	27.78393	133.09112	0.11655	8.57978	35.62525	30.52196	13.64464	0.30547	 	2707522.89	 	1.14136E-6	 	8108.475	28.587	 
355.0	1.0	0.0	1.80744	14.27046	-7.50482	27.73846	132.87819	0.11582	8.63424	35.78219	30.60507	13.70818	0.30514	 	3268358.684	 	9.38038E-7	 	7965.814	28.5322	 
350.0	1.0	0.0	1.80825	14.26407	-7.54627	27.69299	132.66521	0.11508	8.68957	35.93829	30.68718	13.77142	0.30481	 	3957302.883	 	7.68564E-7	 	7823.423	28.4782	 
345.0	1.0	0.0	1.80906	14.25769	-7.58759	27.64753	132.4522	0.11434	8.74579	36.09355	30.76832	13.83438	0.30449	 	4806320.338	 	6.27723E-7	 	7681.303	28.424	 
340.0	1.0	0.0	1.80986	14.25133	-7.62879	27.60206	132.23914	0.1136	8.80293	36.24799	30.84847	13.89705	0.30416	 	5856024.049	 	5.11035E-7	 	7539.452	28.3702	 
335.0	1.0	0.0	1.81067	14.245	-7.66987	27.5566	132.02604	0.11285	8.861	36.40159	30.92765	13.95944	0.30383	 	7158197.295	 	4.14662E-7	 	7397.869	28.3166	 
330.0	1.0	0.0	1.81147	14.23868	-7.71083	27.51113	131.8129	0.11211	8.92003	36.55436	31.00586	14.02153	0.30351	 	8779104.805	 	3.35322E-7	 	7256.552	28.2634	 
325.0	1.0	0.0	1.81227	14.23238	-7.75166	27.46567	131.59973	0.11136	8.98005	36.7063	31.08311	14.08334	0.30318	 	1.080385671E7	 	2.7022E-7	 	7115.5	28.2104	 
320.0	1.0	0.0	1.81307	14.2261	-7.79237	27.4202	131.38654	0.11061	9.04108	36.85741	31.1594	14.14486	0.30286	 	1.334218283E7	 	2.16982E-7	 	6974.713	28.1574	 
315.0	1.0	0.0	1.81387	14.21983	-7.83296	27.37474	131.17331	0.10985	9.10314	37.00769	31.23474	14.20609	0.30253	 	1.653610431E7	 	1.73597E-7	 	6834.188	28.105	 
310.0	1.0	0.0	1.81467	14.21359	-7.87342	27.32927	130.96005	0.1091	9.16627	37.15714	31.30913	14.26703	0.3022	 	2.057016823E7	 	1.38366E-7	 	6693.925	28.0526	 
305.0	1.0	0.0	1.81546	14.20737	-7.91376	27.28381	130.74678	0.10834	9.23048	37.30575	31.38258	14.32769	0.30188	 	2.568516009E7	 	1.09861E-7	 	6553.923	28.0004	 
300.0	1.0	0.0	1.81626	14.20116	-7.95398	27.23835	130.53348	0.10758	9.29582	37.45354	31.45509	14.38805	0.30155	 	3.219655601E7	 	8.68852E-8	 	6414.18	27.9486	 
295.0	1.0	0.0	1.81705	14.19498	-7.99408	27.19289	130.32016	0.10681	9.3623	37.6005	31.52666	14.44813	0.30122	 	4.051946431E7	 	6.84362E-8	 	6274.696	27.8968	 
290.0	1.0	0.0	1.81784	14.18881	-8.03405	27.14743	130.10683	0.10604	9.42996	37.74663	31.59731	14.50792	0.3009	 	5.120249332E7	 	5.36809E-8	 	6135.47	27.8452	 
285.0	1.0	0.0	1.81863	14.18266	-8.0739	27.10196	129.8935	0.10528	9.49884	37.89193	31.66703	14.56742	0.30057	 	6.497395666E7	 	4.19274E-8	 	5996.5	27.794	 
280.0	1.0	0.0	1.81941	14.17653	-8.11363	27.0565	129.68015	0.1045	9.56895	38.0364	31.73584	14.62663	0.30024	 	8.280521417E7	 	3.26041E-8	 	5857.786	27.7428	 
275.0	1.0	0.0	1.8202	14.17042	-8.15324	27.01104	129.4668	0.10373	9.64035	38.18004	31.80373	14.68555	0.29992	 	1.059979332E8	 	2.524E-8	 	5719.327	27.6918	 
270.0	1.0	0.0	1.82098	14.16433	-8.19272	26.96558	129.25345	0.10295	9.71306	38.32285	31.87071	14.74419	0.29959	 	1.36304914E8	 	1.94489E-8	 	5581.122	27.641	 
265.0	1.0	0.0	1.82176	14.15826	-8.23208	26.92012	129.04011	0.10218	9.78713	38.46484	31.93678	14.80253	0.29927	 	1.760982601E8	 	1.49154E-8	 	5443.171	27.5902	 
260.0	1.0	0.0	1.82254	14.1522	-8.27131	26.87466	128.82677	0.10139	9.86258	38.606	32.00196	14.86058	0.29894	 	2.286046979E8	 	1.13828E-8	 	5305.473	27.5396	 
255.0	1.0	0.0	1.82332	14.14617	-8.31043	26.82921	128.61345	0.10061	9.93947	38.74633	32.06624	14.91835	0.29861	 	2.982366624E8	 	8.64337E-9	 	5168.026	27.4894	 
250.0	1.0	0.0	1.82409	14.14015	-8.34942	26.78375	128.40014	0.0998221	10.01782	38.88583	32.12962	14.97583	0.29829	 	3.910607499E8	 	6.52933E-9	 	5030.831	27.439	 
245.0	1.0	0.0	1.82487	14.13416	-8.38829	26.73829	128.18686	0.0990326	10.09769	39.02451	32.19212	15.03301	0.29796	 	5.154643633E8	 	4.90618E-9	 	4893.887	27.3888	 
240.0	1.0	0.0	1.82564	14.12818	-8.42703	26.69283	127.97361	0.0982404	10.17911	39.16236	32.25374	15.08991	0.29763	 	6.831100453E8	 	3.6664E-9	 	4757.193	27.3388	 
235.0	1.0	0.0	1.82641	14.12222	-8.46566	26.64738	127.76038	0.0974455	10.26215	39.29938	32.31448	15.14651	0.29731	 	9.103099939E8	 	2.72452E-9	 	4620.749	27.2888	 
230.0	1.0	0.0	1.82718	14.11628	-8.50416	26.60192	127.5472	0.0966479	10.34683	39.43557	32.37435	15.20283	0.29698	 	1.220018198E9	 	2.01288E-9	 	4484.555	27.2388	 
225.0	1.0	0.0	1.82794	14.11036	-8.54253	26.55646	127.33406	0.0958477	10.43322	39.57094	32.43335	15.25886	0.29666	 	1.644736357E9	 	1.47826E-9	 	4348.61	27.189	 
220.0	1.0	0.0	1.82871	14.10446	-8.58079	26.51101	127.12097	0.0950447	10.52136	39.70549	32.49148	15.31459	0.29633	 	2.230780894E9	 	1.07897E-9	 	4212.914	27.1392	 
215.0	1.0	0.0	1.82947	14.09857	-8.61892	26.46555	126.90793	0.094239	10.61132	39.83921	32.54876	15.37004	0.296	 	3.044591384E9	 	7.82548E-10	 	4077.467	27.0894	 
210.0	1.0	0.0	1.83023	14.09271	-8.65693	26.4201	126.69496	0.0934305	10.70314	39.9721	32.60518	15.42519	0.29568	 	4.18212267E9	 	5.63861E-10	 	3942.269	27.0396	 
205.0	1.0	0.0	1.83099	14.08686	-8.69481	26.37464	126.48205	0.0926193	10.79689	40.10417	32.66074	15.48005	0.29535	 	5.782929244E9	 	4.03555E-10	 	3807.319	26.99	 
200.0	1.0	0.0	1.83175	14.08104	-8.73258	26.32919	126.26923	0.0918052	10.89263	40.23541	32.71546	15.53463	0.29502	 	8.051443637E9	 	2.86822E-10	 	3672.619	26.94	 
195.0	1.0	0.0	1.83251	14.07523	-8.77022	26.28374	126.05648	0.0909884	10.99041	40.36583	32.76933	15.58891	0.2947	 	1.12894E10	 	2.02396E-10	 	3538.168	26.8902	 
190.0	1.0	0.0	1.83326	14.06944	-8.80773	26.23828	125.84383	0.0901687	11.09032	40.49542	32.82237	15.6429	0.29437	 	1.5945399999999998E10	 	1.41766E-10	 	3403.966	26.8404	 
185.0	1.0	0.0	1.83401	14.06367	-8.84513	26.19283	125.63128	0.0893462	11.19242	40.62419	32.87457	15.6966	0.29404	 	2.26921E10	 	9.85418E-11	 	3270.015	26.7902	 
180.0	1.0	0.0	1.83476	14.05792	-8.8824	26.14738	125.41884	0.0885208	11.29678	40.75213	32.92594	15.75	0.29372	 	3.2545799999999996E10	 	6.7957E-11	 	3136.313	26.7404	 
175.0	1.0	0.0	1.83551	14.05219	-8.91955	26.10193	125.20651	0.0876925	11.40348	40.87925	32.97648	15.80312	0.29339	 	4.705539999999999E10	 	4.64837E-11	 	3002.863	26.69	 
170.0	1.0	0.0	1.83626	14.04648	-8.95658	26.05647	124.99431	0.0868614	11.5126	41.00555	33.0262	15.85594	0.29307	 	6.860219999999999E10	 	3.15282E-11	 	2869.665	26.6396	 
165.0	1.0	0.0	1.837	14.04078	-8.99348	26.01102	124.78225	0.0860273	11.62422	41.13102	33.0751	15.90847	0.29274	 	1.0088E11	 	2.11986E-11	 	2736.719	26.5892	 
160.0	1.0	0.0	1.83774	14.03511	-9.03026	25.96557	124.57034	0.0851902	11.73844	41.25566	33.12319	15.96071	0.29241	 	1.4967E11	 	1.41251E-11	 	2604.026	26.5386	 
