T (C)	Fraction solid (wt)-TOTAL	Fraction liquid (wt)-LIQUID	Density (g/(cm)^3)-TOTAL	Molar volume (cm^3)-TOTAL	Volume change (%)-  	Average expansion coeff. (10e-6 1/K)-  	Thermal conductivity (W/(m*K))-TOTAL	Electrical resistivity (10e-6 Ohm*m)-TOTAL	Electrical conductivity (10e6 1/(Ohm*m))-TOTAL	Young's modulus (GPa)-TOTAL	Bulk modulus (GPa)-TOTAL	Shear modulus(GPa)-TOTAL	Poisson's ratio-TOTAL	Liquid viscosity (mPa s)-  	Total viscosity (mPa s)-  	Liquid diffusivity (10e-9 (m^2)/s)-  	Total diffusivity (10e-9 (m^2)/s)-  	Surface Tension (mN/m)-  	Enthalpy (J/mole)-TOTAL	Specific heat (J/(mole K))-TOTAL	Latent heat (J/mole)-TOTAL
1400.0	0.0	1.0	7.22547	8.0489	0.0	35.02553	30.0207	1.36546	0.73235	0.0	122.24726	0.0	0.5	6.75147	6.75147	1.20955	1.20955	1798.27214	43289.711	 	0.0
1395.0	0.0	1.0	7.22959	8.04432	-0.0570091	34.99462	29.93481	1.36529	0.73245	0.0	122.38751	0.0	0.5	6.82351	6.82351	1.1932	1.1932	1801.6575	43091.215	39.6992	0.0
1390.0	0.0	1.0	7.2337	8.03974	-0.11386	34.96392	29.84892	1.36511	0.73254	0.0	122.52776	0.0	0.5	6.89676	6.89676	1.17699	1.17699	1805.06765	42893.148	39.6134	0.0
1385.0	0.0	1.0	7.23781	8.03518	-0.17055	34.93345	29.76303	1.36494	0.73263	0.0	122.66801	0.0	0.5	6.97125	6.97125	1.16091	1.16091	1808.50246	42695.506	39.5284	0.0
1380.0	0.0	1.0	7.24191	8.03063	-0.22707	34.9032	29.67714	1.36476	0.73273	0.0	122.80825	0.0	0.5	7.04699	7.04699	1.14497	1.14497	1811.96175	42498.287	39.4438	0.0
1375.0	0.0	1.0	7.246	8.02609	-0.28344	34.87319	29.59126	1.36458	0.73283	0.0	122.9485	0.0	0.5	7.12403	7.12403	1.12917	1.12917	1815.44537	42301.49	39.3594	0.0
1370.0	0.0	1.0	7.25009	8.02157	-0.33965	34.8434	29.50537	1.3644	0.73292	0.0	123.08875	0.0	0.5	7.20238	7.20238	1.11349	1.11349	1818.95312	42105.11	39.276	0.0
1365.0	0.0	1.0	7.25417	8.01706	-0.39569	34.81386	29.41948	1.36422	0.73302	0.0	123.229	0.0	0.5	7.28209	7.28209	1.09795	1.09795	1822.4848	41909.145	39.193	0.0
1360.0	0.0	1.0	7.25824	8.01256	-0.45158	34.78454	29.33359	1.36404	0.73312	0.0	123.36925	0.0	0.5	7.36317	7.36317	1.08255	1.08255	1826.0402	41713.593	39.1104	0.0
1355.0	0.0	1.0	7.26231	8.00807	-0.5073	34.75547	29.2477	1.36386	0.73321	0.0	123.5095	0.0	0.5	7.44566	7.44566	1.06728	1.06728	1829.61909	41518.451	39.0284	0.0
1350.0	0.0	1.0	7.26637	8.0036	-0.56287	34.72664	29.16182	1.36367	0.73331	0.0	123.64975	0.0	0.5	7.52959	7.52959	1.05214	1.05214	1833.22122	41323.716	38.947	0.0
1345.0	0.0	1.0	7.27042	7.99914	-0.61827	34.69806	29.07593	1.36349	0.73341	0.0	123.79	0.0	0.5	7.615	7.615	1.03714	1.03714	1836.84636	41129.387	38.8658	0.0
1340.0	0.0	1.0	7.27446	7.99469	-0.67352	34.66973	28.99004	1.3633	0.73351	0.0	123.93025	0.0	0.5	7.70191	7.70191	1.02226	1.02226	1840.49423	40935.46	38.7854	0.0
1336.15	0.0	1.0	7.27757	7.99128	-0.71592	34.64809	28.92395	1.36316	0.73359	0.0	124.03817	0.0	0.5	7.76984	7.76984	1.01091	1.01091	1843.31663	40786.505	38.71415	0.0
1335.0	0.02801	0.97199	7.28718	7.98072	-0.84707	34.29664	29.00765	1.35825	0.73624	5.69935E-5	124.63696	1.90415E-5	0.49656	7.79464	8.09997	1.00697	0.96901	1843.41861	40337.964	389.20985	403.968
1330.0	0.1417	0.8583	7.32647	7.93797	-1.37831	32.87505	29.3518	1.33815	0.7473	0.0382678	127.08342	0.0129069	0.48246	7.90377	15.95526	0.98998	0.49041	1843.891	38514.074	364.778	2034.729
1325.0	0.23814	0.76186	7.36046	7.90128	-1.83409	31.66397	29.64354	1.32085	0.75709	0.31204	129.20858	0.10611	0.47032	8.01541	64.87626	0.97315	0.12023	1844.39309	36947.712	313.2724	3408.356
1320.0	0.32057	0.67943	7.39008	7.86958	-2.22793	30.62604	29.89252	1.30575	0.76584	1.04474	131.07253	0.35784	0.45981	8.12961	198.75736	0.95647	0.0391219	1844.9255	35590.423	271.4578	4573.303
1315.0	0.39154	0.60846	7.41606	7.84204	-2.57013	29.73275	30.10575	1.29243	0.77373	2.36474	132.72159	0.81506	0.45065	8.24633	450.70377	0.93998	0.0171984	1845.48637	34404.25	237.2346	5567.528
1310.0	0.45305	0.54695	7.43906	7.81775	-2.8719	28.95254	30.28845	1.28059	0.78089	4.30393	134.19102	1.4917	0.44262	8.36591	840.8969	0.92363	0.00918895	1846.07831	33359.189	209.0122	6421.025
1305.0	0.50667	0.49333	7.4595	7.7963	-3.13838	28.27139	30.44473	1.27	0.7874	6.82529	135.51139	2.37724	0.43555	8.48811	1379.44654	0.90745	0.0055838	1846.69903	32431.321	185.5736	7157.716
1300.0	0.55367	0.44633	7.47782	7.77714	-3.37636	27.67021	30.57777	1.26046	0.79336	9.85326	136.70467	3.44693	0.42928	8.61322	2069.89046	0.89144	0.00370945	1847.34939	31601.425	165.9792	7796.818
1295.0	0.59507	0.40493	7.4943	7.76	-3.58936	27.13933	30.69014	1.25186	0.79881	13.2974	137.792	4.66999	0.42371	8.7412	2912.69315	0.87559	0.00262772	1848.02715	30853.94	149.497	8353.891
1290.0	0.6317	0.3683	7.5092	7.74452	-3.78172	26.66649	30.78424	1.24405	0.80383	17.06399	138.78758	6.01386	0.41872	8.87206	3906.49303	0.85993	0.00195299	1848.73239	30176.181	135.5518	8841.616
1285.0	0.66425	0.33575	7.52276	7.73045	-3.95645	26.24325	30.86197	1.23695	0.80844	21.06466	139.70495	7.44731	0.41425	9.006	5049.67479	0.84443	0.00150603	1849.46431	29557.741	123.688	9270.399
1280.0	0.69329	0.30671	7.53518	7.71763	-4.1158	25.86342	30.92504	1.23046	0.8127	25.22167	140.55498	8.9425	0.41021	9.14319	6341.55934	0.82909	0.00119537	1850.22116	28990.026	113.543	9648.831
1275.0	0.71928	0.28072	7.54657	7.70585	-4.26218	25.52014	30.97506	1.22452	0.81664	29.46927	141.34588	10.47562	0.40656	9.2835	7782.59549	0.81393	9.70902E-4	1851.0025	28465.903	104.8246	9984.046
1270.0	0.74263	0.25737	7.55707	7.69502	-4.39663	25.21064	31.01322	1.21907	0.8203	33.74998	142.08579	12.0256	0.40325	9.42712	9374.15167	0.79894	8.03457E-4	1851.80557	27979.413	97.298	10281.995
1265.0	0.76366	0.23634	7.5668	7.68497	-4.52149	24.92817	31.04087	1.21403	0.8237	38.02326	142.78087	13.57743	0.40024	9.57429	11120.25013	0.78411	6.75104E-4	1852.63106	27525.558	90.771	10547.678
1260.0	0.78268	0.21732	7.57584	7.67564	-4.63741	24.67101	31.05907	1.20938	0.82687	42.25322	143.43655	15.11764	0.39748	9.72476	13025.98576	0.76947	5.74461E-4	1853.4761	27100.119	85.0878	10785.309
1255.0	0.7999	0.2001	7.58429	7.66696	-4.74528	24.43672	31.0687	1.20506	0.82983	46.41065	144.058	16.63516	0.39496	9.87902	15097.53689	0.75499	4.94022E-4	1854.33873	26699.526	80.1186	10998.459
1250.0	0.81557	0.18443	7.59219	7.65878	-4.84692	24.21994	31.07058	1.20105	0.83261	50.47644	144.64762	18.12267	0.39263	10.03695	17342.9664	0.74068	4.28653E-4	1855.22087	26320.737	75.7578	11190.166
1245.0	0.82982	0.17018	7.59962	7.65112	-4.94208	24.02162	31.06554	1.1973	0.83521	54.43567	145.20999	19.57425	0.39049	10.19862	19772.9601	0.72654	3.7474E-4	1856.11718	25961.152	71.917	11363.028
1240.0	0.84284	0.15716	7.60662	7.64387	-5.03214	23.83773	31.05414	1.19379	0.83767	58.27799	145.74752	20.98577	0.38851	10.3644	22398.58172	0.71256	3.29722E-4	1857.02932	25618.544	68.5216	11519.27
1235.0	0.85475	0.14525	7.61324	7.63704	-5.11706	23.66849	31.03708	1.1905	0.83998	61.99657	146.26322	22.35433	0.38668	10.53409	25233.80209	0.69877	2.91708E-4	1857.95306	25290.99	65.5108	11660.813
1230.0	0.86567	0.13433	7.61951	7.63053	-5.19796	23.51057	31.01475	1.18741	0.84217	65.58698	146.75842	23.67805	0.38497	10.70805	28292.97091	0.68514	2.59305E-4	1858.89025	24976.831	62.8318	11789.314
1225.0	0.8757	0.1243	7.62547	7.62434	-5.27475	23.36439	30.98778	1.18449	0.84425	69.04863	147.23586	24.95635	0.38339	10.88618	31594.14499	0.67169	2.31438E-4	1859.83655	24674.627	60.4408	11906.212
1220.0	0.88493	0.11507	7.63116	7.61842	-5.34841	23.227	30.9565	1.18173	0.84622	72.38392	147.69683	26.18992	0.3819	11.06895	35156.64026	0.65839	2.07292E-4	1860.79412	24383.124	58.3006	12012.757
1215.0	0.89344	0.10656	7.63659	7.61276	-5.41864	23.09946	30.92134	1.17911	0.8481	75.5933	148.14317	27.37861	0.38052	11.25606	39002.17565	0.64528	1.86228E-4	1861.75777	24101.228	56.3792	12110.043
1210.0	0.90131	0.0986939	7.64179	7.60733	-5.48616	22.97957	30.8825	1.17663	0.84989	78.67385	148.57547	28.5212	0.37922	11.44812	43150.98292	0.63232	1.67757E-4	1862.72989	23827.98	54.6496	12199.025
1205.0	0.90858	0.0914155	7.64678	7.6021	-5.55114	22.86685	30.84049	1.17426	0.8516	81.63949	148.99575	29.62259	0.37799	11.645	47634.31592	0.61953	1.51456E-4	1863.70749	23562.539	53.0882	12280.544
1200.0	0.91532	0.0846829	7.65158	7.59706	-5.61373	22.76092	30.79536	1.172	0.85324	84.4821	149.4042	30.67964	0.37684	11.84695	52474.73099	0.60691	1.3702E-4	1864.69049	23304.163	51.6752	12355.339
1195.0	0.92156	0.0784352	7.6562	7.59219	-5.67422	22.66098	30.74751	1.16984	0.85482	87.21391	149.80199	31.6967	0.37576	12.05396	57707.3803	0.59447	1.24173E-4	1865.67741	23052.195	50.3936	12424.064
1190.0	0.92737	0.0726311	7.65883	7.58653	-5.74452	22.52801	30.616	1.17086	0.85407	89.91793	150.14784	32.70733	0.37458	12.26655	63365.89131	0.58217	1.12699E-4	1869.43882	22740.01173	62.43665	12487.296
1185.0	0.93277	0.0672315	7.66985	7.57881	-5.84044	22.30967	30.28862	1.17948	0.84783	92.99164	150.48503	33.86878	0.37282	12.48442	70734.44177	0.57006	1.00614E-4	1873.20093	22317.4796	84.50643	12545.548
1180.0	0.9378	0.0622044	7.68021	7.57116	-5.9355	22.09226	29.97622	1.18768	0.84198	95.94043	150.8066	34.98514	0.37116	12.70822	78856.1058	0.5581	8.99419E-5	1876.96273	21907.20543	82.05483	12599.277
1175.0	0.94232	0.0576825	7.6899	7.56362	-6.02919	21.87752	29.67398	1.19565	0.83637	98.70744	151.11389	36.03497	0.36961	12.94543	87766.65187	0.54599	8.05324E-5	1880.72448	21508.24611	79.79186	12649.051
1170.0	0.94636	0.0536434	7.69895	7.5562	-6.12134	21.66603	29.37923	1.20348	0.83093	101.29728	151.40872	37.01974	0.36815	13.20355	97542.47455	0.53347	7.22112E-5	1884.4872	21118.46521	77.95618	12696.654
1165.0	0.95082	0.0491829	7.70765	7.54854	-6.21652	21.44255	29.11049	1.21038	0.82619	103.91999	151.71873	38.01938	0.36667	13.50385	108622.3207	0.5198	6.46207E-5	1888.26057	20729.72613	77.74782	12749.89
1160.0	0.95536	0.0446357	7.71589	7.54082	-6.31247	21.21451	28.85996	1.21664	0.82194	106.50619	152.03246	39.00723	0.36521	13.83634	121037.5211	0.50554	5.77908E-5	1892.04062	20345.89856	76.76551	12804.571
1155.0	0.95949	0.0405143	7.72352	7.53334	-6.40546	20.99442	28.61823	1.22264	0.8179	108.93346	152.33082	39.93604	0.36385	14.17768	134666.8639	0.49165	5.17607E-5	1895.82159	19973.68784	74.44214	12853.697
1150.0	0.96299	0.0370094	7.73074	7.52624	-6.4936	20.78884	28.3757	1.22877	0.81382	111.06868	152.62458	40.7561	0.3626	14.49006	149501.3093	0.47937	4.64614E-5	1899.62545	19602.23768	74.29003	12907.843
1145.0	0.96616	0.0338429	7.73748	7.51945	-6.57801	20.59413	28.14057	1.23468	0.80992	113.05671	152.90751	41.52111	0.36144	14.80366	165776.1477	0.46756	4.17529E-5	1903.43278	19238.46933	72.75367	12959.82
1140.0	0.96906	0.0309418	7.74374	7.5129	-6.65938	20.40809	27.91473	1.24028	0.80627	114.93684	153.17825	42.24557	0.36034	15.12831	183659.1225	0.45592	3.75545E-5	1907.24172	18884.38531	70.8168	13007.377
1135.0	0.97172	0.0282763	7.74957	7.50658	-6.73781	20.23045	27.69764	1.24558	0.80284	116.72053	153.43833	42.93366	0.35931	15.46369	203316.9846	0.44445	3.38035E-5	1911.04997	18539.22998	69.03107	13051.03
1130.0	0.97418	0.0258175	7.75501	7.50048	-6.81366	20.06012	27.48878	1.25059	0.79962	118.42148	153.68929	43.59048	0.35834	15.81082	224939.132	0.43315	3.04457E-5	1914.85943	18202.33438	67.37912	13091.226
1125.0	0.97722	0.0227784	7.76033	7.4941	-6.89292	19.87644	27.28976	1.25522	0.79667	120.45089	153.968	44.3717	0.35729	16.19294	249515.1231	0.42142	2.73491E-5	1918.62491	17856.40349	69.18618	13145.044
1120.0	0.98057	0.0194306	7.76544	7.48759	-6.97379	19.68545	27.09931	1.25952	0.79395	122.70915	154.26389	45.23956	0.35622	16.60817	277190.1539	0.40941	2.45305E-5	1922.35261	17506.92453	69.89579	13206.797
1115.0	0.98346	0.0165446	7.77011	7.48142	-7.05046	19.50739	26.91491	1.2636	0.79139	124.81773	154.54063	46.05031	0.35523	17.03399	307423.0952	0.39775	2.20387E-5	1926.08522	17170.70021	67.24486	13259.489
1110.0	0.98597	0.0140343	7.77441	7.47553	-7.1236	19.34014	26.73635	1.26746	0.78898	126.83977	154.80189	46.82749	0.35433	17.47097	340521.2611	0.3864	1.98249E-5	1929.82249	16845.7941	64.98122	13304.88
1105.0	0.98817	0.0118318	7.77839	7.46989	-7.19367	19.18214	26.56335	1.2711	0.78672	128.82841	155.05052	47.59097	0.3535	17.91937	376818.7197	0.37537	1.78505E-5	1933.56277	16530.69298	63.02022	13344.307
1100.0	0.99012	0.0098831	7.7821	7.46447	-7.26111	19.03206	26.39561	1.27454	0.7846	130.81764	155.28865	48.35353	0.35272	18.37967	416678.5042	0.36464	1.60844E-5	1937.30775	16224.19641	61.29931	13378.808
1095.0	0.99185	0.00814819	7.78557	7.45923	-7.32619	18.88895	26.23281	1.27778	0.78261	132.81056	155.51808	49.11648	0.352	18.8529	460500.6807	0.35419	1.45007E-5	1941.05628	15925.33384	59.77251	13409.199
1090.0	0.99341	0.00659356	7.78884	7.45415	-7.3892	18.75192	26.0728	1.28092	0.78069	134.7732	155.74025	49.86742	0.35132	19.33861	508731.0652	0.34404	1.3078E-5	1944.80703	15633.31061	58.40465	13436.129
1085.0	0.99497	0.00502526	7.79205	7.44918	-7.45101	18.61792	25.91952	1.28377	0.77896	136.77664	155.96324	50.63371	0.35065	19.80097	562169.0704	0.33477	1.17915E-5	1948.56812	15344.82016	57.69809	13462.761
1080.0	0.99644	0.00355674	7.79511	7.44433	-7.51128	18.48821	25.77054	1.28644	0.77734	138.62742	156.18253	51.34312	0.35001	20.26726	621187.0625	0.32586	1.06319E-5	1952.33239	15061.45074	56.67388	13487.375
1075.0	0.99778	0.00221978	7.79801	7.43961	-7.56994	18.36311	25.62543	1.28894	0.77583	140.22583	156.39684	51.95839	0.3494	20.74597	686304.0199	0.31717	9.58757E-6	1956.09745	14783.51695	55.58676	13509.53
1070.0	0.999	9.97031E-4	7.80078	7.435	-7.62715	18.24212	25.48392	1.29129	0.77442	141.59148	156.60692	52.48678	0.34883	21.23738	758204.7544	0.30868	8.64619E-6	1959.86359	14510.56346	54.5907	13529.558
1065.0	1.0	0.0	7.8047	7.43052	-7.68283	18.1256	25.34374	1.2936	0.77304	142.76273	156.79935	52.94359	0.34825	 	841895.352	 	7.75771E-6	 	14337.43048	34.6266	 
1060.0	1.0	0.0	7.80859	7.42682	-7.72884	18.04356	25.20475	1.29587	0.77168	143.2737	156.947	53.14884	0.34785	 	932031.6651	 	6.98128E-6	 	14101.99004	47.08809	 
1055.0	1.0	0.0	7.81244	7.42316	-7.77425	17.96295	25.06937	1.29799	0.77042	143.77637	157.0945	53.35077	0.34746	 	1032663.687	 	6.27733E-6	 	13868.9175	46.61451	 
1050.0	1.0	0.0	7.81624	7.41955	-7.81909	17.8837	24.93739	1.29994	0.76926	144.27122	157.24192	53.54955	0.34708	 	1145107.14	 	5.63962E-6	 	13638.11802	46.15989	 
1045.0	1.0	0.0	7.82	7.41599	-7.86337	17.80574	24.80865	1.30175	0.7682	144.75866	157.38934	53.74536	0.34671	 	1270854.15	 	5.06239E-6	 	13409.5012	45.72337	 
1040.0	1.0	0.0	7.82371	7.41247	-7.90713	17.72901	24.68296	1.30342	0.76721	145.22677	157.52341	53.93376	0.34634	 	1411598.365	 	4.54036E-6	 	13182.98077	45.30408	 
1035.0	1.0	0.0	7.82739	7.40899	-7.95037	17.65345	24.56019	1.30494	0.76632	145.70096	157.67137	54.12422	0.34599	 	1569263.967	 	4.06863E-6	 	12958.47447	44.90126	 
1030.0	1.0	0.0	7.83102	7.40555	-7.99311	17.57901	24.44016	1.30634	0.7655	146.16893	157.81949	54.31217	0.34564	 	1746039.035	 	3.64273E-6	 	12735.90372	44.51415	 
1025.0	1.0	0.0	7.83462	7.40214	-8.03539	17.50563	24.32276	1.30761	0.76475	146.63101	157.96781	54.49774	0.34529	 	1944414.066	 	3.25854E-6	 	12515.19357	44.14203	 
1020.0	1.0	0.0	7.83819	7.39878	-8.07721	17.43326	24.20784	1.30876	0.76408	147.08754	158.11638	54.68107	0.34496	 	2167226.435	 	2.91227E-6	 	12296.27247	43.78422	 
1015.0	1.0	0.0	7.84172	7.39545	-8.11859	17.36185	24.09528	1.30979	0.76348	147.53882	158.26523	54.86227	0.34463	 	2417711.789	 	2.60045E-6	 	12079.07211	43.44007	 
1010.0	1.0	0.0	7.84521	7.39215	-8.15954	17.29136	23.98498	1.3107	0.76295	147.98513	158.41438	55.04146	0.34431	 	2699563.502	 	2.31991E-6	 	11863.52723	43.10898	 
1005.0	1.0	0.0	7.84868	7.38889	-8.20009	17.22173	23.8768	1.31151	0.76248	148.42675	158.56387	55.21876	0.34399	 	3017001.551	 	2.06773E-6	 	11649.57553	42.79034	 
1000.0	1.0	0.0	7.85211	7.38565	-8.24025	17.15293	23.77067	1.31221	0.76207	148.86393	158.71372	55.39425	0.34368	 	3374852.314	 	1.84124E-6	 	11437.15752	42.4836	 
995.0	1.0	0.0	7.85552	7.38245	-8.28002	17.08492	23.66084	1.31313	0.76154	149.29692	158.86395	55.56805	0.34337	 	3778641.262	 	1.63803E-6	 	11226.21634	42.18824	 
990.0	1.0	0.0	7.8589	7.37928	-8.31943	17.01764	23.55841	1.31364	0.76125	149.72595	159.01459	55.74023	0.34307	 	4234700.566	 	1.45586E-6	 	11016.6977	41.90373	 
985.0	1.0	0.0	7.86224	7.37614	-8.35849	16.95107	23.45776	1.31405	0.76101	150.15122	159.16564	55.91089	0.34277	 	4750294.259	 	1.2927E-6	 	10808.54972	41.6296	 
980.0	1.0	0.0	7.86557	7.37302	-8.3972	16.88517	23.35879	1.31437	0.76082	150.57294	159.31712	56.08011	0.34248	 	5333764.025	 	1.14672E-6	 	10601.72313	41.36532	 
975.0	1.0	0.0	7.86886	7.36993	-8.43558	16.81991	23.26144	1.31461	0.76068	150.99131	159.46905	56.24796	0.34219	 	5994699.038	 	1.01622E-6	 	10396.16995	41.11064	 
970.0	1.0	0.0	7.87214	7.36687	-8.47365	16.75524	23.16564	1.31476	0.7606	151.4065	159.62144	56.41451	0.34191	 	6744134.122	 	8.99672E-7	 	10191.84518	40.86495	 
965.0	1.0	0.0	7.87539	7.36383	-8.5114	16.69114	23.07131	1.31482	0.76056	151.81868	159.77429	56.57985	0.34163	 	7594781.37	 	7.95691E-7	 	9988.70556	40.62792	 
960.0	1.0	0.0	7.87861	7.36082	-8.54885	16.62758	22.9784	1.31481	0.76057	152.22802	159.92762	56.74402	0.34136	 	8561300.75	 	7.03012E-7	 	9786.70971	40.39917	 
955.0	1.0	0.0	7.88181	7.35782	-8.58602	16.56453	22.88684	1.31472	0.76062	152.63467	160.08142	56.9071	0.34109	 	9660617.157	 	6.20488E-7	 	9585.81808	40.17833	 
950.0	1.0	0.0	7.885	7.35486	-8.6229	16.50195	22.79658	1.31455	0.76072	153.03877	160.23572	57.06913	0.34082	 	1.091229191E7	 	5.4708E-7	 	9385.99281	39.96505	 
945.0	1.0	0.0	7.88816	7.35191	-8.65951	16.43983	22.70756	1.31431	0.76086	153.44045	160.39051	57.23018	0.34056	 	1.233895864E7	 	4.81847E-7	 	9187.19773	39.75901	 
940.0	1.0	0.0	7.8913	7.34898	-8.69586	16.37813	22.61974	1.31399	0.76104	153.83985	160.54579	57.3903	0.34029	 	1.396683544E7	 	4.23939E-7	 	8989.39824	39.5599	 
935.0	1.0	0.0	7.89442	7.34608	-8.73194	16.31683	22.53307	1.31361	0.76126	154.23709	160.70158	57.54953	0.34004	 	1.58263273E7	 	3.72587E-7	 	8792.56123	39.3674	 
930.0	1.0	0.0	7.89752	7.34319	-8.76778	16.2559	22.44751	1.31316	0.76152	154.63229	160.85787	57.70793	0.33978	 	1.795273542E7	 	3.27096E-7	 	8596.65499	39.18125	 
925.0	1.0	0.0	7.9006	7.34033	-8.80338	16.19533	22.36301	1.31264	0.76182	155.02555	161.01467	57.86553	0.33953	 	2.038709365E7	 	2.86842E-7	 	8401.64923	39.00115	 
920.0	1.0	0.0	7.90366	7.33748	-8.83874	16.13508	22.27953	1.31206	0.76216	155.41697	161.17198	58.02239	0.33928	 	2.317715562E7	 	2.51259E-7	 	8207.51492	38.82686	 
915.0	1.0	0.0	7.90671	7.33466	-8.87387	16.07515	22.19704	1.31142	0.76253	155.80666	161.32979	58.17853	0.33904	 	2.637856178E7	 	2.1984E-7	 	8014.22427	38.65813	 
910.0	1.0	0.0	7.90974	7.33185	-8.90878	16.01549	22.1155	1.31072	0.76294	156.1947	161.48812	58.334	0.3388	 	3.005622021E7	 	1.92129E-7	 	7821.75069	38.49472	 
905.0	1.0	0.0	7.91275	7.32905	-8.94347	15.95611	22.03487	1.30995	0.76339	156.58119	161.64695	58.48883	0.33856	 	3.428594296E7	 	1.67715E-7	 	7630.06869	38.3364	 
900.0	1.0	0.0	7.91575	7.32628	-8.97794	15.89697	21.95514	1.30913	0.76386	156.96621	161.8063	58.64305	0.33832	 	3.915638692E7	 	1.4623E-7	 	7439.15391	38.18296	 
895.0	1.0	0.0	7.91873	7.32352	-9.01221	15.83806	21.87626	1.30825	0.76438	157.34983	161.96616	58.79671	0.33808	 	4.477135974E7	 	1.27346E-7	 	7248.98296	38.03419	 
890.0	1.0	0.0	7.9217	7.32078	-9.04628	15.77937	21.79821	1.30732	0.76493	157.73213	162.12654	58.94982	0.33785	 	5.125256245E7	 	1.10766E-7	 	7059.53344	37.8899	 
885.0	1.0	0.0	7.92465	7.31805	-9.08015	15.72086	21.72096	1.30633	0.76551	158.11319	162.28742	59.10242	0.33762	 	5.874285597E7	 	9.62269E-8	 	6870.7839	37.74991	 
880.0	1.0	0.0	7.92759	7.31534	-9.11382	15.66253	21.64449	1.30528	0.76612	158.49307	162.44881	59.25454	0.33739	 	6.74101554E7	 	8.34924E-8	 	6682.71365	37.61405	 
875.0	1.0	0.0	7.93051	7.31265	-9.14731	15.60436	21.56877	1.30419	0.76676	158.87182	162.61072	59.40619	0.33717	 	7.74520848E7	 	7.23523E-8	 	6495.30292	37.48215	 
870.0	1.0	0.0	7.93342	7.30997	-9.18062	15.54634	21.49378	1.30304	0.76744	159.24953	162.77313	59.55741	0.33694	 	8.910153514E7	 	6.26188E-8	 	6308.53313	37.35396	 
