T (C)	Fraction solid (wt)-TOTAL	Fraction liquid (wt)-LIQUID	Density (g/(cm)^3)-TOTAL	Molar volume (cm^3)-TOTAL	Volume change (%)-  	Average expansion coeff. (10e-6 1/K)-  	Thermal conductivity (W/(m*K))-TOTAL	Electrical resistivity (10e-6 Ohm*m)-TOTAL	Electrical conductivity (10e6 1/(Ohm*m))-TOTAL	Young's modulus (GPa)-TOTAL	Bulk modulus (GPa)-TOTAL	Shear modulus(GPa)-TOTAL	Poisson's ratio-TOTAL	Liquid viscosity (mPa s)-  	Total viscosity (mPa s)-  	Liquid diffusivity (10e-9 (m^2)/s)-  	Total diffusivity (10e-9 (m^2)/s)-  	Surface Tension (mN/m)-  	Enthalpy (J/mole)-TOTAL	Specific heat (J/(mole K))-TOTAL	Latent heat (J/mole)-TOTAL
1400.0	0.0	1.0	7.77683	7.89985	0.0	28.23744	28.4787	1.4394	0.69474	0.0	130.16226	0.0	0.5	8.92533	8.92533	0.91495	0.91495	1862.24289	56921.519	 	0.0
1395.0	0.0	1.0	7.7809	7.89572	-0.0523581	28.19827	28.41122	1.4385	0.69517	0.0	130.32982	0.0	0.5	9.02556	9.02556	0.90209	0.90209	1865.72515	56717.543	40.7952	0.0
1390.0	0.0	1.0	7.78497	7.89159	-0.10457	28.15922	28.34373	1.43761	0.6956	0.0	130.49738	0.0	0.5	9.12752	9.12752	0.88933	0.88933	1869.22411	56514.036	40.7014	0.0
1385.0	0.0	1.0	7.78903	7.88748	-0.15663	28.12028	28.27624	1.43671	0.69604	0.0	130.66494	0.0	0.5	9.23127	9.23127	0.8767	0.8767	1872.73969	56310.993	40.6086	0.0
1380.0	0.0	1.0	7.79308	7.88338	-0.20854	28.08147	28.20875	1.4358	0.69648	0.0	130.8325	0.0	0.5	9.33683	9.33683	0.86417	0.86417	1876.27179	56108.412	40.5162	0.0
1375.0	0.0	1.0	7.79712	7.87929	-0.2603	28.04279	28.14127	1.43489	0.69692	0.0	131.00006	0.0	0.5	9.44424	9.44424	0.85176	0.85176	1879.82032	55906.291	40.4242	0.0
1370.0	0.0	1.0	7.80116	7.87521	-0.31191	28.00423	28.07378	1.43398	0.69736	0.0	131.16762	0.0	0.5	9.55356	9.55356	0.83946	0.83946	1883.38521	55704.627	40.3328	0.0
1365.0	0.0	1.0	7.80519	7.87115	-0.36337	27.96579	28.00629	1.43306	0.69781	0.0	131.33518	0.0	0.5	9.66483	9.66483	0.82727	0.82727	1886.96637	55503.419	40.2416	0.0
1360.0	0.0	1.0	7.80921	7.86709	-0.41468	27.92749	27.9388	1.43214	0.69826	0.0	131.50273	0.0	0.5	9.77808	9.77808	0.81519	0.81519	1890.56371	55302.663	40.1512	0.0
1355.0	0.0	1.0	7.81322	7.86305	-0.46585	27.88931	27.87131	1.43121	0.69871	0.0	131.67029	0.0	0.5	9.89337	9.89337	0.80322	0.80322	1894.17718	55102.356	40.0614	0.0
1350.0	0.0	1.0	7.81723	7.85902	-0.51686	27.85127	27.80383	1.43028	0.69917	0.0	131.83785	0.0	0.5	10.01074	10.01074	0.79137	0.79137	1897.8067	54902.498	39.9716	0.0
1345.0	0.0	1.0	7.82123	7.855	-0.56773	27.81336	27.73634	1.42934	0.69962	0.0	132.00541	0.0	0.5	10.13024	10.13024	0.77963	0.77963	1901.4522	54703.085	39.8826	0.0
1340.0	0.0	1.0	7.82522	7.851	-0.61844	27.77558	27.66885	1.4284	0.70008	0.0	132.17297	0.0	0.5	10.25192	10.25192	0.76799	0.76799	1905.11363	54504.114	39.7942	0.0
1335.56	0.0	1.0	7.82876	7.84745	-0.66336	27.74214	27.60891	1.42756	0.7005	0.0	132.32179	0.0	0.5	10.36187	10.36187	0.75775	0.75775	1908.37896	54327.764	39.71024	0.0
1335.0	0.01372	0.98628	7.83237	7.84378	-0.70982	27.622	27.64673	1.42511	0.7017	3.76352E-6	132.40275	1.25616E-6	0.49802	10.37729	10.57052	0.75636	0.74254	1908.47286	54094.847	416.60764	210.738
1330.0	0.1295	0.8705	7.86304	7.81322	-1.09661	26.62479	27.96664	1.40443	0.71203	0.0303743	133.0482	0.0102531	0.48123	10.51572	29.8827	0.74408	0.26184	1909.30628	52128.114	393.3466	1979.381
1325.0	0.22682	0.77318	7.88938	7.78717	-1.42635	25.78322	28.23178	1.3869	0.72103	0.29039	133.58918	0.0989773	0.46694	10.65591	189.11635	0.732	0.0412454	1910.13501	50453.293	334.9642	3456.546
1320.0	0.30935	0.69065	7.91227	7.76457	-1.71241	25.06068	28.45229	1.37185	0.72894	1.01867	134.05041	0.35013	0.45469	10.7979	661.22088	0.72012	0.0117597	1910.96838	49012.524	288.1538	4700.094
1315.0	0.37989	0.62011	7.93231	7.74497	-1.96061	24.44178	28.6359	1.35877	0.73596	2.3451	134.45559	0.81195	0.44412	10.94181	1583.40156	0.70842	0.00489539	1911.80896	47761.149	250.275	5754.679
1310.0	0.44062	0.55938	7.95004	7.72769	-2.17928	23.90357	28.78835	1.34732	0.74221	4.29131	134.81729	1.49531	0.43492	11.08773	3044.47645	0.69689	0.00253803	1912.66425	46664.353	219.3592	6655.114
1305.0	0.49326	0.50674	7.96582	7.71238	-2.37305	23.43355	28.91418	1.33722	0.74782	6.80679	135.14687	2.38519	0.42689	11.23568	5095.02865	0.68554	0.00151178	1913.53819	45694.734	193.9238	7428.8
1304.17	0.50111	0.49889	7.96823	7.71004	-2.40273	23.36243	28.932	1.33569	0.74867	7.26208	135.20013	2.54688	0.42568	11.26054	5486.02481	0.68367	0.00140329	1913.68511	45547.204	 	7543.788
1300.0	0.54814	0.45186	7.98266	7.69618	-2.57816	22.92675	29.05363	1.32659	0.75381	10.3572	135.55896	3.65053	0.41859	11.29272	8201.38777	0.67992	9.36202E-4	1910.54382	44675.741	203.7986	8252.283
1295.0	0.59743	0.40257	7.99832	7.68122	-2.76752	22.46211	29.17395	1.31692	0.75935	14.6417	135.92544	5.18814	0.41107	11.33386	12257.67121	0.6753	6.24405E-4	1906.88893	43743.011	186.546	8989.927
1290.0	0.63989	0.36011	8.01235	7.6679	-2.93612	22.05489	29.26882	1.30846	0.76426	19.36537	136.24356	6.89391	0.40453	11.37787	17148.57463	0.67054	4.44897E-4	1903.35022	42917.829	165.0364	9620.444
1289.61	0.64286	0.35714	8.01336	7.66693	-2.94842	22.02553	29.2749	1.30786	0.76461	19.73711	136.26765	7.02856	0.40406	11.38144	17555.64307	0.67016	4.34472E-4	1903.07691	42858.602	 	9664.431
1285.0	0.68509	0.31491	8.02783	7.6533	-3.12099	21.59635	29.37815	1.29942	0.76957	25.65404	136.54691	9.17984	0.3973	11.43383	24020.34217	0.66513	3.16604E-4	1899.23021	42038.895	175.7868	10305.132
1280.0	0.72478	0.27522	8.04195	7.64005	-3.28871	21.18505	29.46592	1.2914	0.77436	32.43719	136.80169	11.66079	0.39087	11.49286	32158.17043	0.65959	2.35727E-4	1895.13238	41247.577	158.2636	10902.619
1275.0	0.75891	0.24109	8.05463	7.62825	-3.438	20.8253	29.53121	1.28439	0.77858	39.35623	137.02432	14.2053	0.38527	11.55411	41383.87824	0.65398	1.82586E-4	1891.12022	40544.761	140.5632	11412.019
1270.0	0.78834	0.21166	8.06609	7.61767	-3.57197	20.50847	29.57711	1.27826	0.78231	46.23362	137.22545	16.74672	0.38038	11.6174	51647.95527	0.64831	1.45828E-4	1887.20456	39916.086	125.735	11847.69
1265.0	0.81379	0.18621	8.07649	7.60813	-3.69274	20.22872	29.60634	1.27286	0.78563	52.93791	137.41342	19.23473	0.3761	11.68256	62918.72004	0.64261	1.19318E-4	1883.39307	39349.751	113.267	12221.431
1260.0	0.83586	0.16414	8.08599	7.59947	-3.8024	19.98014	29.62125	1.26808	0.78859	59.37963	137.59448	21.63431	0.37235	11.74947	75186.5992	0.63687	9.95247E-5	1879.69434	38836.018	102.7466	12542.977
1255.0	0.85505	0.14495	8.09472	7.59154	-3.90272	19.75782	29.62382	1.26384	0.79124	65.4991	137.77252	23.92147	0.36904	11.81804	88456.43937	0.63111	8.43186E-5	1876.11566	38366.809	93.8418	12820.407
1250.0	0.87178	0.12822	8.10279	7.58426	-3.99486	19.55855	29.61581	1.26004	0.79362	71.26415	137.95101	26.08255	0.36613	11.88817	102754.6042	0.62534	7.23483E-5	1872.66105	37935.404	86.281	13060.437
1245.0	0.88642	0.11358	8.11027	7.57754	-4.07991	19.37926	29.59872	1.25663	0.79578	76.65762	138.13194	28.10967	0.36355	11.95969	118118.633	0.61956	6.27311E-5	1869.33467	37536.188	79.8432	13268.678
1240.0	0.89925	0.10075	8.11726	7.5713	-4.15895	19.21689	29.57378	1.25355	0.79774	81.68087	138.31648	30.0021	0.36125	12.0327	134608.7152	0.61377	5.4865E-5	1866.13984	37164.462	74.3452	13449.832
1235.0	0.91053	0.089472	8.12381	7.56546	-4.23282	19.0691	29.54213	1.25075	0.79952	86.34616	138.50567	31.76339	0.35921	12.10706	152305.3984	0.60798	4.83299E-5	1863.07809	36816.275	69.6374	13607.849
1230.0	0.92047	0.0795344	8.12998	7.55999	-4.30218	18.93402	29.50468	1.24818	0.80117	90.66672	138.69988	33.39761	0.35738	12.18259	171295.0956	0.60221	4.28296E-5	1866.1466	36488.29236	65.59653	13746.054
1225.0	0.92925	0.0707475	8.13323	7.55504	-4.36478	18.81878	29.46762	1.24559	0.80283	94.5873	138.77243	34.88453	0.35572	12.25948	191889.7074	0.59644	3.81057E-5	1869.21855	36174.46471	62.76553	13867.251
1220.0	0.93704	0.0629615	8.1368	7.5503	-4.42476	18.71072	29.42572	1.2432	0.80437	98.22139	138.8808	36.26476	0.35423	12.33761	214028.8416	0.59069	3.40501E-5	1872.29429	35875.75563	59.74182	13973.817
1215.0	0.94396	0.0560413	8.14065	7.54575	-4.48242	18.60901	29.37956	1.24099	0.80581	101.592	139.02106	37.54655	0.35288	12.41694	237852.7349	0.58495	3.05369E-5	1875.37303	35590.15121	57.12088	14067.764
1210.0	0.95015	0.0498453	8.14476	7.54133	-4.53828	18.5121	29.32973	1.23892	0.80715	104.73807	139.19131	38.74428	0.35166	12.49589	263553.2168	0.5793	2.74665E-5	1878.45524	35315.43557	54.94313	14151.305
1205.0	0.95731	0.042692	8.14983	7.53646	-4.60001	18.39586	29.28092	1.2368	0.80854	108.55411	139.49011	40.19729	0.35027	12.49914	293368.2174	0.5772	2.45919E-5	1881.52906	35024.75281	58.13655	14251.289
1200.0	0.96338	0.0366202	8.15487	7.53187	-4.65805	18.29029	29.22718	1.23488	0.80979	111.93866	139.79511	41.48757	0.34906	12.50557	325092.091	0.57495	2.21171E-5	1884.60702	34750.49605	54.85135	14335.322
1195.0	0.96858	0.0314223	8.15988	7.52753	-4.71306	18.19348	29.16945	1.23313	0.81095	114.96029	140.10463	42.64073	0.34801	12.51538	358990.6805	0.57255	1.99606E-5	1887.68904	34489.51846	52.19552	14406.545
1190.0	0.97306	0.0269363	8.16487	7.52338	-4.76553	18.10393	29.10841	1.23151	0.81201	117.67688	140.41772	43.67846	0.34708	12.52873	395348.2764	0.56999	1.80632E-5	1890.77446	34239.40018	50.02366	14467.376
1185.0	0.97697	0.0230345	8.16982	7.5194	-4.81594	18.02024	29.04454	1.23	0.81301	120.13513	140.7332	44.61833	0.34625	12.54573	434463.5133	0.56727	1.63808E-5	1893.86511	33998.25541	48.22895	14519.695
1180.0	0.98346	0.0165435	8.1771	7.51415	-4.88242	17.88405	28.98905	1.22812	0.81425	123.87072	141.09568	46.05008	0.34496	12.60018	483198.3579	0.56289	1.46782E-5	1896.94851	33714.69932	56.71122	14614.886
1175.0	0.99365	0.00634932	8.18774	7.50701	-4.97279	17.66937	28.94401	1.2258	0.81579	129.58171	141.52694	48.24382	0.34299	12.72771	546376.2965	0.55533	1.29363E-5	1900.02088	33371.86513	68.56684	14769.81
1170.0	1.0	0.0	8.19572	7.50151	-5.04245	17.52009	28.88486	1.22407	0.81694	134.78281	141.91029	50.22821	0.3417	 	607647.6686	 	1.15917E-5	 	33088.38907	56.69521	14865.828
1165.0	1.0	0.0	8.19844	7.49902	-5.07393	17.49417	28.80826	1.22308	0.81761	135.16326	142.18077	50.37543	0.34156	 	657887.2967	 	1.06694E-5	 	32895.29368	38.61908	 
1160.0	1.0	0.0	8.20115	7.49654	-5.10533	17.46828	28.73162	1.22207	0.81828	135.54304	142.4503	50.52242	0.34141	 	712667.2879	 	9.81503E-6	 	32721.29263	34.80021	 
1155.0	1.0	0.0	8.20386	7.49406	-5.13664	17.44244	28.65495	1.22107	0.81895	135.92215	142.71889	50.66918	0.34127	 	772432.2605	 	9.02402E-6	 	32547.64816	34.72889	 
1150.0	1.0	0.0	8.20656	7.4916	-5.16788	17.41663	28.57825	1.22006	0.81963	136.3006	142.98653	50.81571	0.34113	 	837673.6404	 	8.29206E-6	 	32374.35808	34.65802	 
1145.0	1.0	0.0	8.20926	7.48914	-5.19903	17.39087	28.50152	1.21905	0.82031	136.67838	143.25322	50.96202	0.34098	 	908935.0723	 	7.61511E-6	 	32201.42022	34.58757	 
1140.0	1.0	0.0	8.21195	7.48668	-5.23011	17.36513	28.42475	1.21803	0.821	137.05549	143.51897	51.1081	0.34084	 	986818.1451	 	6.98937E-6	 	32028.83243	34.51756	 
1135.0	1.0	0.0	8.21464	7.48423	-5.2611	17.33944	28.34795	1.21701	0.82169	137.43193	143.78376	51.25395	0.3407	 	1071989.15	 	6.41129E-6	 	31856.59258	34.44797	 
1130.0	1.0	0.0	8.21732	7.48179	-5.29202	17.31378	28.27111	1.21598	0.82238	137.8077	144.0476	51.39957	0.34055	 	1165186.444	 	5.87754E-6	 	31684.69856	34.3788	 
1125.0	1.0	0.0	8.22	7.47935	-5.32285	17.28815	28.19425	1.21495	0.82308	138.1828	144.31048	51.54496	0.34041	 	1267228.887	 	5.385E-6	 	31513.14827	34.31006	 
1120.0	1.0	0.0	8.22267	7.47692	-5.35361	17.26256	28.11735	1.21392	0.82378	138.55723	144.5724	51.69013	0.34027	 	1379025.048	 	4.93074E-6	 	31341.93965	34.24172	 
1115.0	1.0	0.0	8.22533	7.4745	-5.38429	17.237	28.04043	1.21288	0.82448	138.93099	144.83337	51.83507	0.34013	 	1501583.892	 	4.51205E-6	 	31171.07065	34.1738	 
1110.0	1.0	0.0	8.228	7.47208	-5.41489	17.21148	27.96348	1.21184	0.82519	139.30408	145.09337	51.97978	0.33998	 	1636026.482	 	4.12635E-6	 	31000.53924	34.10628	 
1105.0	1.0	0.0	8.23065	7.46967	-5.44541	17.18598	27.88649	1.21079	0.82591	139.6765	145.35242	52.12426	0.33984	 	1783599.412	 	3.77125E-6	 	30830.34343	34.03916	 
1100.0	1.0	0.0	8.2333	7.46727	-5.47585	17.16052	27.80948	1.20974	0.82663	140.04825	145.6105	52.26851	0.3397	 	1945689.822	 	3.44454E-6	 	30660.48122	33.97244	 
1095.0	1.0	0.0	8.23595	7.46487	-5.50622	17.13509	27.73244	1.20868	0.82735	140.41933	145.86762	52.41254	0.33956	 	2123842.096	 	3.14411E-6	 	30490.95065	33.90611	 
1090.0	1.0	0.0	8.23859	7.46248	-5.53651	17.10968	27.65538	1.20762	0.82808	140.78974	146.12378	52.55634	0.33942	 	2319777.316	 	2.86803E-6	 	30321.74979	33.84017	 
1085.0	1.0	0.0	8.24122	7.46009	-5.56673	17.08431	27.57829	1.20655	0.82881	141.15948	146.37897	52.69991	0.33928	 	2535414.51	 	2.61448E-6	 	30152.87672	33.77461	 
1080.0	1.0	0.0	8.24386	7.45771	-5.59686	17.05897	27.50117	1.20548	0.82954	141.52855	146.6332	52.84326	0.33914	 	2772895.102	 	2.38177E-6	 	29984.32953	33.70944	 
1075.0	1.0	0.0	8.24648	7.45533	-5.62692	17.03365	27.42402	1.20441	0.83028	141.89695	146.88647	52.98637	0.33899	 	3034610.288	 	2.16831E-6	 	29816.10636	33.64463	 
1070.0	1.0	0.0	8.2491	7.45296	-5.65691	17.00836	27.34685	1.20333	0.83103	142.26468	147.13877	53.12926	0.33885	 	3323232.58	 	1.97265E-6	 	29648.20536	33.5802	 
1065.0	1.0	0.0	8.25172	7.4506	-5.68682	16.9831	27.26966	1.20224	0.83178	142.63175	147.3901	53.27193	0.33871	 	3641750.616	 	1.79342E-6	 	29480.6247	33.51613	 
1060.0	1.0	0.0	8.25433	7.44824	-5.71665	16.95787	27.19244	1.20115	0.83254	142.99815	147.64047	53.41437	0.33857	 	3993509.085	 	1.62934E-6	 	29313.36258	33.45243	 
1055.0	1.0	0.0	8.25694	7.44589	-5.74641	16.93266	27.11519	1.20005	0.8333	143.36388	147.88987	53.55658	0.33843	 	4382254.781	 	1.47923E-6	 	29146.4172	33.38908	 
1050.0	1.0	0.0	8.25954	7.44355	-5.7761	16.90748	27.03793	1.19895	0.83406	143.72895	148.13831	53.69856	0.33829	 	4812187.051	 	1.342E-6	 	28979.78682	33.32608	 
1045.0	1.0	0.0	8.26213	7.44121	-5.80571	16.88232	26.96064	1.19785	0.83483	144.09335	148.38578	53.84032	0.33815	 	5288017.11	 	1.21663E-6	 	28813.46969	33.26343	 
1040.0	1.0	0.0	8.26473	7.43888	-5.83524	16.85719	26.88332	1.19673	0.83561	144.45709	148.63229	53.98186	0.33802	 	5815033.935	 	1.10217E-6	 	28647.4641	33.20112	 
1035.0	1.0	0.0	8.26731	7.43655	-5.86471	16.83208	26.80599	1.19562	0.83639	144.82016	148.87783	54.12317	0.33788	 	6399180.141	 	9.97746E-7	 	28481.76835	33.13915	 
1030.0	1.0	0.0	8.26989	7.43423	-5.89409	16.807	26.72863	1.19449	0.83717	145.18257	149.12241	54.26426	0.33774	 	7047138.176	 	9.02544E-7	 	28316.38079	33.07751	 
1025.0	1.0	0.0	8.27247	7.43191	-5.92341	16.78194	26.65125	1.19337	0.83797	145.54432	149.36602	54.40512	0.3376	 	7766428.716	 	8.15812E-7	 	28151.29976	33.01621	 
1020.0	1.0	0.0	8.27504	7.4296	-5.95265	16.7569	26.57386	1.19223	0.83876	145.90541	149.60867	54.54576	0.33746	 	8565522.237	 	7.36855E-7	 	27986.52363	32.95523	 
1015.0	1.0	0.0	8.27761	7.4273	-5.98182	16.73189	26.49644	1.19109	0.83957	146.26583	149.85036	54.68617	0.33732	 	9453967.527	 	6.65027E-7	 	27822.05082	32.89456	 
1010.0	1.0	0.0	8.28017	7.425	-6.01091	16.70689	26.419	1.18995	0.84037	146.6256	150.09109	54.82636	0.33718	 	1.044253763E7	 	5.99733E-7	 	27657.87971	32.83422	 
1005.0	1.0	0.0	8.28273	7.42271	-6.03993	16.68192	26.34154	1.18879	0.84119	146.98471	150.33086	54.96633	0.33704	 	1.15433979E7	 	5.40424E-7	 	27494.00878	32.77419	 
1000.0	1.0	0.0	8.28528	7.42042	-6.06888	16.65697	26.26406	1.18764	0.84201	147.34316	150.56966	55.10608	0.3369	 	1.277029616E7	 	4.86592E-7	 	27330.43646	32.71446	 
995.0	1.0	0.0	8.28783	7.41814	-6.09776	16.63204	26.18656	1.18647	0.84283	147.70096	150.80751	55.24561	0.33677	 	1.413878463E7	 	4.37769E-7	 	27167.16127	32.65504	 
990.0	1.0	0.0	8.29037	7.41586	-6.12656	16.60713	26.10904	1.1853	0.84366	148.0581	151.0444	55.38491	0.33663	 	1.56664693E7	 	3.93523E-7	 	27004.18169	32.59592	 
985.0	1.0	0.0	8.29291	7.41359	-6.15529	16.58224	26.03151	1.18413	0.8445	148.41458	151.28033	55.52399	0.33649	 	1.73733015E7	 	3.53457E-7	 	26841.49626	32.53709	 
980.0	1.0	0.0	8.29544	7.41133	-6.18395	16.55738	25.95395	1.18295	0.84535	148.77041	151.51531	55.66285	0.33635	 	1.928191035E7	 	3.17205E-7	 	26679.10352	32.47855	 
975.0	1.0	0.0	8.29797	7.40907	-6.21254	16.53253	25.87638	1.18176	0.8462	149.12559	151.74933	55.8015	0.33621	 	2.141798359E7	 	2.8443E-7	 	26517.00205	32.42029	 
970.0	1.0	0.0	8.3005	7.40682	-6.24106	16.5077	25.79879	1.18057	0.84705	149.48012	151.9824	55.93992	0.33608	 	2.381070999E7	 	2.54823E-7	 	26355.19043	32.36232	 
965.0	1.0	0.0	8.30302	7.40457	-6.2695	16.48289	25.72118	1.17937	0.84791	149.834	152.21452	56.07812	0.33594	 	2.649328699E7	 	2.28099E-7	 	26193.66729	32.30463	 
960.0	1.0	0.0	8.30553	7.40233	-6.29788	16.4581	25.64356	1.17816	0.84878	150.18723	152.44569	56.21611	0.3358	 	2.950350798E7	 	2.03999E-7	 	26032.43124	32.24721	 
955.0	1.0	0.0	8.30804	7.40009	-6.32618	16.43332	25.56592	1.17694	0.84966	150.53981	152.67591	56.35387	0.33567	 	3.288443629E7	 	1.82284E-7	 	25871.48093	32.19006	 
950.0	1.0	0.0	8.31054	7.39786	-6.35441	16.40857	25.48826	1.17572	0.85054	150.89174	152.90518	56.49142	0.33553	 	3.668519293E7	 	1.62733E-7	 	25710.81505	32.13318	 
945.0	1.0	0.0	8.31304	7.39564	-6.38257	16.38383	25.41059	1.1745	0.85143	151.24303	153.13351	56.62875	0.33539	 	4.09618587E7	 	1.45147E-7	 	25550.43228	32.07655	 
940.0	1.0	0.0	8.31554	7.39342	-6.41066	16.35911	25.3329	1.17326	0.85232	151.59367	153.36089	56.76586	0.33525	 	4.577852633E7	 	1.29342E-7	 	25390.33132	32.02019	 
935.0	1.0	0.0	8.31803	7.39121	-6.43868	16.33441	25.25519	1.17202	0.85323	151.94367	153.58733	56.90276	0.33512	 	5.120851653E7	 	1.1515E-7	 	25230.51091	31.96408	 
930.0	1.0	0.0	8.32052	7.389	-6.46663	16.30973	25.17747	1.17078	0.85413	152.29303	153.81283	57.03944	0.33498	 	5.73357985E7	 	1.02419E-7	 	25070.9698	31.90822	 
925.0	1.0	0.0	8.323	7.3868	-6.4945	16.28506	25.09973	1.16952	0.85505	152.64174	154.03739	57.1759	0.33484	 	6.425662378E7	 	9.10081E-8	 	24911.70673	31.85261	 
920.0	1.0	0.0	8.32547	7.3846	-6.52231	16.26041	25.02198	1.16826	0.85597	152.98982	154.26101	57.31215	0.33471	 	7.208144784E7	 	8.07901E-8	 	24752.72051	31.79724	 
915.0	1.0	0.0	8.32794	7.38241	-6.55005	16.23578	24.94421	1.16699	0.8569	153.33725	154.4837	57.44818	0.33457	 	8.093715622E7	 	7.1649E-8	 	24594.00992	31.74212	 
910.0	1.0	0.0	8.33041	7.38022	-6.57771	16.21116	24.86643	1.16572	0.85784	153.68405	154.70545	57.584	0.33443	 	9.096966468E7	 	6.3479E-8	 	24435.57378	31.68723	 
905.0	1.0	0.0	8.33287	7.37804	-6.60531	16.18656	24.78863	1.16443	0.85879	154.03021	154.92627	57.7196	0.3343	 	1.023469451E8	 	5.6184E-8	 	24277.41092	31.63257	 
900.0	1.0	0.0	8.33533	7.37587	-6.63284	16.16198	24.71082	1.16314	0.85974	154.37574	155.14617	57.85499	0.33416	 	1.152625909E8	 	4.96766E-8	 	24119.52019	31.57815	 
895.0	1.0	0.0	8.33778	7.3737	-6.66029	16.13741	24.63299	1.16184	0.8607	154.72062	155.36513	57.99016	0.33402	 	1.299399516E8	 	4.38776E-8	 	23961.90047	31.52394	 
890.0	1.0	0.0	8.34023	7.37153	-6.68768	16.11286	24.55515	1.16054	0.86167	155.06488	155.58317	58.12513	0.33389	 	1.466370107E8	 	3.8715E-8	 	23804.55061	31.46997	 
885.0	1.0	0.0	8.34267	7.36938	-6.715	16.08833	24.47729	1.15922	0.86265	155.4085	155.80029	58.25988	0.33375	 	1.656520753E8	 	3.41236E-8	 	23647.46953	31.41622	 
880.0	1.0	0.0	8.34511	7.36722	-6.74224	16.06381	24.39942	1.1579	0.86363	155.75149	156.01648	58.39441	0.33362	 	1.873304947E8	 	3.00444E-8	 	23490.65604	31.3627	 
875.0	1.0	0.0	8.34754	7.36508	-6.76942	16.03931	24.32154	1.15657	0.86462	156.09385	156.23176	58.52874	0.33348	 	2.120725388E8	 	2.64241E-8	 	23334.10908	31.30939	 
870.0	1.0	0.0	8.34997	7.36294	-6.79653	16.01482	24.24364	1.15524	0.86562	156.43558	156.44612	58.66285	0.33334	 	2.403426602E8	 	2.32145E-8	 	23177.82769	31.25628	 
866.22	1.0	0.0	8.3518	7.36132	-6.81696	15.99633	24.18479	1.15422	0.86638	156.69331	156.60744	58.76402	0.33324	 	2.643625987E8	 	2.10355E-8	 	23059.94788	 	 
865.0	1.0	0.0	8.35265	7.36057	-6.82643	15.97767	24.16327	1.15401	0.86654	156.79875	156.66665	58.80573	0.33319	 	2.731050834E8	 	2.03403E-8	 	23009.05443	33.75465	 
