T (C)	Fraction solid (wt)-TOTAL	Fraction liquid (wt)-LIQUID	Density (g/(cm)^3)-TOTAL	Molar volume (cm^3)-TOTAL	Volume change (%)-  	Average expansion coeff. (10e-6 1/K)-  	Thermal conductivity (W/(m*K))-TOTAL	Electrical resistivity (10e-6 Ohm*m)-TOTAL	Electrical conductivity (10e6 1/(Ohm*m))-TOTAL	Young's modulus (GPa)-TOTAL	Bulk modulus (GPa)-TOTAL	Shear modulus(GPa)-TOTAL	Poisson's ratio-TOTAL	Liquid viscosity (mPa s)-  	Total viscosity (mPa s)-  	Liquid diffusivity (10e-9 (m^2)/s)-  	Total diffusivity (10e-9 (m^2)/s)-  	Surface Tension (mN/m)-  	Enthalpy (J/mole)-TOTAL	Specific heat (J/(mole K))-TOTAL	Latent heat (J/mole)-TOTAL
1400.0	0.0	1.0	7.42377	7.83366	0.0	27.4749	31.50252	1.30123	0.7685	0.0	124.40573	0.0	0.49999	7.40151	7.40151	1.10332	1.10332	1748.05256	61232.686	 	0.0
1395.0	0.0	1.0	7.42754	7.82968	-0.0507773	27.43762	31.41576	1.30093	0.76868	0.0	124.57389	0.0	0.49999	7.47862	7.47862	1.08868	1.08868	1750.12071	61030.341	40.469	0.0
1390.0	0.0	1.0	7.43131	7.82572	-0.1014	27.40048	31.32901	1.30062	0.76886	0.0	124.74206	0.0	0.49999	7.55701	7.55701	1.07416	1.07416	1752.20456	60828.441	40.38	0.0
1385.0	0.0	1.0	7.43506	7.82176	-0.15188	27.36348	31.24226	1.30031	0.76905	0.0	124.91022	0.0	0.49999	7.6367	7.6367	1.05975	1.05975	1754.30428	60626.985	40.2912	0.0
1380.0	0.0	1.0	7.43881	7.81782	-0.20221	27.32662	31.1555	1.3	0.76923	0.0	125.07839	0.0	0.49999	7.71772	7.71772	1.04547	1.04547	1756.42004	60425.971	40.2028	0.0
1375.0	0.0	1.0	7.44256	7.81389	-0.25238	27.2899	31.06875	1.29969	0.76942	0.0	125.24655	0.0	0.49999	7.8001	7.8001	1.0313	1.0313	1758.55202	60225.396	40.115	0.0
1370.0	0.0	1.0	7.44629	7.80997	-0.30241	27.25332	30.982	1.29937	0.7696	0.0	125.41471	0.0	0.49999	7.88387	7.88387	1.01724	1.01724	1760.70035	60025.259	40.0274	0.0
1365.0	0.0	1.0	7.45002	7.80606	-0.35228	27.21689	30.89524	1.29906	0.76979	0.0	125.58288	0.0	0.49999	7.96906	7.96906	1.00331	1.00331	1762.8652	59825.558	39.9402	0.0
1360.0	0.0	1.0	7.45374	7.80217	-0.40201	27.1806	30.80849	1.29874	0.76998	0.0	125.75104	0.0	0.49999	8.05569	8.05569	0.98949	0.98949	1765.04671	59626.289	39.8538	0.0
1355.0	0.0	1.0	7.45745	7.79828	-0.45158	27.14445	30.72174	1.29842	0.77017	0.0	125.91921	0.0	0.49999	8.14381	8.14381	0.97578	0.97578	1767.24501	59427.453	39.7672	0.0
1350.0	0.0	1.0	7.46115	7.79441	-0.501	27.10846	30.63499	1.2981	0.77036	0.0	126.08737	0.0	0.49999	8.23345	8.23345	0.9622	0.9622	1769.46023	59229.045	39.6816	0.0
1345.0	0.0	1.0	7.46485	7.79055	-0.55027	27.07261	30.54823	1.29777	0.77055	0.0	126.25554	0.0	0.49999	8.32464	8.32464	0.94872	0.94872	1771.6925	59031.065	39.596	0.0
1340.0	0.0	1.0	7.46854	7.7867	-0.5994	27.03692	30.46148	1.29745	0.77074	0.0	126.4237	0.0	0.49999	8.41741	8.41741	0.93537	0.93537	1773.94193	58833.51	39.511	0.0
1335.0	0.0	1.0	7.47222	7.78287	-0.64837	27.00138	30.37473	1.29712	0.77094	0.0	126.59186	0.0	0.49999	8.5118	8.5118	0.92213	0.92213	1776.20863	58636.379	39.4262	0.0
1330.0	0.0	1.0	7.47589	7.77904	-0.69719	26.966	30.28797	1.29679	0.77113	0.0	126.76003	0.0	0.49999	8.60785	8.60785	0.90901	0.90901	1778.49269	58439.669	39.342	0.0
1325.0	0.0	1.0	7.47956	7.77523	-0.74586	26.93078	30.20122	1.29646	0.77133	0.0	126.92819	0.0	0.49999	8.70559	8.70559	0.896	0.896	1780.7942	58243.378	39.2582	0.0
1320.0	0.0	1.0	7.48322	7.77143	-0.79438	26.89571	30.11447	1.29613	0.77153	0.0	127.09636	0.0	0.49999	8.80507	8.80507	0.8831	0.8831	1783.11324	58047.505	39.1746	0.0
1315.92	0.0	1.0	7.4862	7.76834	-0.83388	26.8672	30.04365	1.29585	0.77169	0.0	127.23364	0.0	0.49999	8.88759	8.88759	0.87266	0.87266	1785.01943	57887.916	39.09837	0.0
1315.0	0.01664	0.98336	7.49003	7.76445	-0.88353	26.74348	30.10059	1.29265	0.7736	7.73529E-6	127.27216	2.58251E-6	0.49763	8.91157	9.11667	0.86981	0.85024	1784.8927	57600.206	313.31743	251.84
1310.0	0.10188	0.89812	7.50981	7.74402	-1.14422	26.09466	30.39021	1.2763	0.78351	0.0110328	127.4848	0.00371366	0.48543	9.04215	16.90882	0.85455	0.45698	1784.27571	56119.682	296.1048	1537.32
1305.0	0.17634	0.82366	7.52742	7.72591	-1.37549	25.52608	30.63768	1.262	0.79239	0.10024	127.72143	0.0339883	0.47469	9.17392	74.24987	0.83961	0.10374	1783.77973	54808.155	262.3054	2654.216
1300.0	0.24176	0.75824	7.54319	7.70972	-1.58217	25.02459	30.84988	1.24935	0.80042	0.35825	127.9788	0.12225	0.46519	9.30693	248.73101	0.82499	0.0308693	1783.39556	53637.953	234.0404	3630.194
1295.0	0.29957	0.70043	7.55741	7.69519	-1.76768	24.58105	31.03238	1.23805	0.80772	0.85358	128.25509	0.29298	0.45673	9.44117	607.01894	0.81068	0.0126088	1783.11456	52586.792	210.2322	4487.541
1290.0	0.35091	0.64909	7.57034	7.68213	-1.9343	24.18938	31.18959	1.22788	0.81441	1.62289	128.54876	0.55994	0.44918	9.57675	1206.14711	0.79665	0.00632539	1782.92857	51636.569	190.0446	5244.355
1285.0	0.39673	0.60327	7.58214	7.67007	-2.08826	23.83193	31.32398	1.2187	0.82054	2.67585	128.85299	0.92758	0.44238	9.71374	2092.771	0.78291	0.00363391	1782.83163	50772.467	172.8204	5915.451
1280.0	0.43781	0.56219	7.593	7.6591	-2.22832	23.5127	31.43928	1.21034	0.82622	4.00293	129.1707	1.39353	0.43626	9.85215	3305.62566	0.76943	0.00229322	1782.81609	49982.27	158.0394	6513.047
1275.0	0.47476	0.52524	7.60302	7.64904	-2.35672	23.22553	31.53737	1.20269	0.83147	5.58114	129.49916	1.95047	0.43071	9.99213	4876.56042	0.75621	0.00154948	1782.87612	49255.838	145.2864	7047.278
1270.0	0.50816	0.49184	7.61232	7.63967	-2.47636	22.9622	31.62002	1.19567	0.83635	7.38275	129.83533	2.58922	0.42567	10.13368	6835.14451	0.74324	0.00110191	1783.00671	48584.698	134.228	7526.614
1265.0	0.53844	0.46156	7.621	7.63089	-2.58847	22.71926	31.68872	1.18921	0.84089	9.37532	130.17823	3.29868	0.42107	10.27687	9207.69312	0.73051	8.15332E-4	1783.20303	47961.734	124.5928	7958.172
1260.0	0.56598	0.43402	7.62912	7.62273	-2.69255	22.49848	31.74525	1.18324	0.84514	11.52691	130.52851	4.06775	0.41687	10.42178	12021.69958	0.71801	6.22451E-4	1783.45976	47380.93	116.1608	8347.964
1255.0	0.5911	0.4089	7.63677	7.61514	-2.78954	22.29732	31.79087	1.17769	0.84912	13.80791	130.88566	4.88599	0.41301	10.56847	15306.56156	0.70573	4.87276E-4	1783.77266	46837.179	108.7502	8701.096
1250.0	0.6141	0.3859	7.64399	7.60788	-2.88218	22.10766	31.82625	1.17253	0.85286	16.19142	131.24607	5.74387	0.40945	10.71695	19092.90154	0.69368	3.89365E-4	1784.13894	46326.12	102.2118	9021.926
1245.0	0.63519	0.36481	7.65083	7.60104	-2.96954	21.93253	31.8525	1.16772	0.85637	18.6513	131.61105	6.63195	0.40617	10.86739	23414.21826	0.68183	3.16462E-4	1784.55427	45844.017	96.4206	9314.192
1240.0	0.65458	0.34542	7.65733	7.59456	-3.05223	21.7702	31.87057	1.16321	0.85969	21.16544	131.97995	7.54219	0.40314	11.01975	28308.31232	0.67019	2.60888E-4	1785.01544	45387.648	91.2738	9581.11
1235.31	0.67139	0.32861	7.66316	7.58879	-3.12583	21.62895	31.88067	1.15924	0.86264	23.55566	132.32956	8.40978	0.40049	11.16466	33457.8343	0.65944	2.2005E-4	1785.48714	44980.456	 	9810.858
1235.0	0.67278	0.32722	7.66361	7.58831	-3.13196	21.61563	31.8823	1.15894	0.86286	23.76159	132.35817	8.48465	0.40027	11.17681	33882.00191	0.65859	2.17251E-4	1785.51445	44948.766	87.7764	9830.927
1230.0	0.69436	0.30564	7.67075	7.5812	-3.22277	21.42566	31.90656	1.15422	0.86639	27.16604	132.82591	9.72427	0.39682	11.37434	41292.20854	0.645	1.77673E-4	1785.97416	44448.839	99.9854	10142.172
1225.0	0.71375	0.28625	7.67741	7.57457	-3.30739	21.25322	31.92049	1.14988	0.86966	30.54525	133.28337	10.95836	0.3937	11.57341	49531.59267	0.6318	1.47625E-4	1786.47564	43983.854	92.997	10418.858
1220.0	0.73124	0.26876	7.68367	7.5683	-3.38746	21.0935	31.92524	1.14587	0.8727	33.87789	133.73124	12.17874	0.39086	11.7741	58652.36622	0.61896	1.24252E-4	1787.0172	43548.783	87.0142	10666.011
1215.0	0.74707	0.25293	7.68959	7.56244	-3.46228	20.94879	31.92228	1.14214	0.87555	37.14809	134.17276	13.37918	0.38828	11.97671	68719.52765	0.60645	1.05695E-4	1787.59548	43139.492	81.8582	10887.762
1210.0	0.76147	0.23853	7.6952	7.55686	-3.53351	20.81412	31.91215	1.13866	0.87822	40.34422	134.60761	14.55509	0.38591	12.18139	79803.4866	0.59426	9.07089E-5	1788.20929	42752.554	77.3876	11087.537
1205.0	0.77461	0.22539	7.70055	7.55154	-3.60135	20.68896	31.89584	1.1354	0.88074	43.4604	135.03686	15.70396	0.38374	12.38834	91991.13027	0.58236	7.84259E-5	1788.85633	42385.107	73.4894	11268.195
1200.0	0.78665	0.21335	7.70566	7.54647	-3.6661	20.5725	31.87391	1.13234	0.88313	46.48918	135.46137	16.82276	0.38173	12.59772	105371.6781	0.57074	6.82354E-5	1789.53471	42034.75	70.0714	11432.138
1195.0	0.79771	0.20229	7.71057	7.5416	-3.7282	20.46342	31.84705	1.12945	0.88539	49.43028	135.88171	17.9111	0.37988	12.80966	120056.8089	0.5594	5.96857E-5	1790.24268	41699.447	67.0606	11581.397
1190.0	0.80789	0.19211	7.71531	7.53692	-3.78797	20.36084	31.81573	1.12671	0.88754	52.28303	136.29833	18.96849	0.37815	13.02428	136166.6752	0.5483	5.24451E-5	1790.97859	41377.472	64.395	11717.698
1185.0	0.81729	0.18271	7.71987	7.5324	-3.84569	20.26397	31.78034	1.12411	0.88959	55.04726	136.7113	19.99467	0.37655	13.242	153832.5067	0.53745	4.62637E-5	1791.74097	41067.344	62.0256	11842.523
1184.72	0.81779	0.18221	7.72012	7.53215	-3.84888	20.25861	31.77824	1.12397	0.8897	55.19807	136.73424	20.0507	0.37646	13.25421	154864.0403	0.53685	4.59468E-5	1791.78428	41050.463	 	11849.091
1180.0	0.82732	0.17268	7.725	7.52739	-3.9096	20.14635	31.72558	1.12219	0.89111	58.11267	137.19313	21.13415	0.37485	13.40598	174175.397	0.52905	4.07202E-5	1792.50965	40731.988	67.0712	11992.94
1175.0	0.8365	0.1635	7.72994	7.52259	-3.97088	20.03618	31.66787	1.12037	0.89256	61.05355	137.66987	22.22894	0.37329	13.56928	196403.1184	0.52089	3.59875E-5	1793.31181	40410.213	64.355	12130.14
1170.0	0.84483	0.15517	7.73468	7.51801	-4.02941	19.93396	31.60812	1.11861	0.89397	63.84906	138.13768	23.27104	0.37186	13.73563	220625.5181	0.5128	3.19258E-5	1794.14576	40102.229	61.5968	12253.912
1165.0	0.85245	0.14755	7.73926	7.51357	-4.0861	19.83684	31.54664	1.11691	0.89533	66.51584	138.59732	24.26645	0.37053	13.90508	247065.6098	0.5048	2.84105E-5	1795.00921	39806.177	59.2104	12366.112
1160.0	0.85944	0.14056	7.74367	7.5093	-4.14054	19.74623	31.48366	1.11525	0.89666	69.06336	139.05026	25.21846	0.3693	14.07778	275959.9134	0.49687	2.53473E-5	1795.89847	39520.527	57.13	12468.27
1155.0	0.8659	0.1341	7.74795	7.50518	-4.19318	19.66072	31.4193	1.11364	0.89796	71.49702	139.49704	26.12893	0.36816	14.25402	307547.9441	0.48902	2.26646E-5	1796.81158	39244.005	55.3044	12561.658
1151.05	0.87064	0.12936	7.75125	7.50199	-4.23385	19.59566	31.36755	1.11239	0.89897	73.34759	139.84593	26.82192	0.36731	14.39583	334607.8241	0.48286	2.07741E-5	1797.54919	39031.374	 	12629.833
1150.0	0.87457	0.12543	7.75295	7.50039	-4.25435	19.54631	31.35307	1.11208	0.89921	74.1968	139.99015	27.14474	0.36669	14.43432	346262.1857	0.48122	2.00601E-5	1797.77196	38912.84	66.233	12710.043
1145.0	0.89129	0.10871	7.76046	7.4933	-4.34485	19.3337	31.28319	1.11065	0.90037	77.93067	140.64256	28.56633	0.36403	14.61844	403822.9124	0.47349	1.71403E-5	1798.83238	38390.34	104.5	13050.118
1140.15	0.90446	0.095543	7.76683	7.48732	-4.42111	19.16404	31.21339	1.10932	0.90145	81.08898	141.22594	29.77045	0.3619	14.79972	462348.8451	0.46609	1.49194E-5	1799.87853	37947.451	 	13316.293
1140.0	0.90502	0.0949844	7.76703	7.4871	-4.42397	19.15706	31.21149	1.10928	0.90149	81.23729	141.24909	29.82695	0.36181	14.80483	464596.1508	0.46588	1.48457E-5	1799.93499	37930.29366	92.00927	13327.595
1135.0	0.92235	0.0776491	7.7735	7.48139	-4.49687	18.99965	31.14816	1.1076	0.90285	86.11083	141.95015	31.68181	0.359	14.97702	542496.5099	0.45889	1.26689E-5	1801.83409	37399.21118	106.2165	13675.902
1130.0	0.93568	0.0643158	7.7791	7.4764	-4.56054	18.87178	31.08166	1.10603	0.90414	90.86649	142.57372	33.48588	0.35679	15.14907	622460.284	0.45207	1.10022E-5	1803.73966	36951.58011	89.52621	13941.138
1125.0	0.94617	0.0538295	7.78411	7.47195	-4.61738	18.76579	31.01281	1.10453	0.90536	95.79869	143.1436	35.34965	0.35502	15.32173	705754.2089	0.44538	9.66912E-6	1805.65053	36562.9228	77.73146	14147.775
1120.0	0.95458	0.0454212	7.78868	7.46788	-4.66934	18.67537	30.94208	1.1031	0.90654	100.87907	143.67465	37.26431	0.35356	15.4956	793565.9324	0.43881	8.56844E-6	1807.56715	36217.12761	69.15904	14311.926
1115.0	0.96158	0.038416	7.79296	7.46405	-4.71822	18.5946	30.87038	1.10169	0.90769	105.94668	144.17894	39.17219	0.35232	15.67081	887576.3139	0.43235	7.63339E-6	1809.48988	35901.01188	63.22315	14446.769
1110.0	1.0	0.0	7.80503	7.45123	-4.88184	18.12066	30.83407	1.09902	0.9099	134.05132	145.13028	49.7941	0.34606	 	1127638.235	 	5.98668E-6	 	35124.23198	155.35598	15042.646
1105.0	1.0	0.0	7.80757	7.44881	-4.9128	18.09818	30.75001	1.09804	0.91072	134.54067	145.50775	49.98185	0.3459	 	1227947.104	 	5.47777E-6	 	34948.94905	35.05659	 
1100.0	1.0	0.0	7.81011	7.44639	-4.94368	18.07575	30.66595	1.09705	0.91153	135.02906	145.88341	50.1693	0.34573	 	1338001.834	 	5.00896E-6	 	34789.35276	31.91926	 
1095.0	1.0	0.0	7.81264	7.44397	-4.97449	18.05335	30.58188	1.09606	0.91236	135.51648	146.25728	50.35642	0.34557	 	1458827.449	 	4.57737E-6	 	34630.03504	31.86354	 
1090.0	1.0	0.0	7.81517	7.44157	-5.00523	18.031	30.49782	1.09507	0.91319	136.00294	146.62935	50.54324	0.34541	 	1591564.849	 	4.18029E-6	 	34470.99476	31.80806	 
1085.0	1.0	0.0	7.81769	7.43916	-5.03589	18.00869	30.41375	1.09407	0.91402	136.48844	146.99965	50.72973	0.34525	 	1737484.733	 	3.81517E-6	 	34312.2308	31.75279	 
1080.0	1.0	0.0	7.82021	7.43677	-5.06648	17.98643	30.32967	1.09306	0.91486	136.97297	147.36816	50.91592	0.34509	 	1898003.68	 	3.47965E-6	 	34153.74205	31.69775	 
1075.0	1.0	0.0	7.82273	7.43438	-5.09701	17.96421	30.2456	1.09205	0.91571	137.45654	147.73491	51.10179	0.34493	 	2074701.55	 	3.17153E-6	 	33995.52741	31.64293	 
1070.0	1.0	0.0	7.82524	7.43199	-5.12745	17.94203	30.16152	1.09103	0.91656	137.93915	148.09989	51.28734	0.34477	 	2269342.052	 	2.88876E-6	 	33837.58575	31.58833	 
1065.0	1.0	0.0	7.82775	7.42961	-5.15783	17.91989	30.07744	1.09001	0.91742	138.4208	148.46312	51.47259	0.34461	 	2483895.312	 	2.62941E-6	 	33679.91602	31.53395	 
1060.0	1.0	0.0	7.83025	7.42724	-5.18814	17.8978	29.99335	1.08898	0.91829	138.90149	148.82459	51.65752	0.34445	 	2720563.753	 	2.3917E-6	 	33522.5171	31.47978	 
1055.0	1.0	0.0	7.83274	7.42487	-5.21837	17.87575	29.90927	1.08795	0.91916	139.38123	149.18432	51.84213	0.34429	 	2981811.526	 	2.17397E-6	 	33365.38791	31.42584	 
1050.0	1.0	0.0	7.83524	7.42251	-5.24853	17.85375	29.82517	1.08691	0.92004	139.86001	149.54232	52.02644	0.34412	 	3270397.394	 	1.97467E-6	 	33208.52741	31.3721	 
1045.0	1.0	0.0	7.83773	7.42015	-5.27862	17.83179	29.74108	1.08586	0.92093	140.33784	149.89857	52.21043	0.34396	 	3589412.529	 	1.79237E-6	 	33051.9345	31.31858	 
1040.0	1.0	0.0	7.84021	7.4178	-5.30864	17.80988	29.65698	1.08481	0.92182	140.81471	150.25311	52.39411	0.3438	 	3942323.227	 	1.62573E-6	 	32895.60815	31.26527	 
1035.0	1.0	0.0	7.84269	7.41545	-5.33858	17.78801	29.57288	1.08375	0.92272	141.29062	150.60592	52.57748	0.34364	 	4333019.528	 	1.47351E-6	 	32739.54727	31.21217	 
1030.0	1.0	0.0	7.84517	7.41311	-5.36846	17.76619	29.48878	1.08269	0.92363	141.76559	150.95702	52.76054	0.34348	 	4765870.59	 	1.33456E-6	 	32583.75085	31.15928	 
1028.61	1.0	0.0	7.84586	7.41246	-5.37679	17.76009	29.46531	1.08239	0.92388	141.89791	151.05464	52.81154	0.34344	 	4894780.349	 	1.29802E-6	 	32540.33985	 	 
1025.0	1.0	0.0	7.84763	7.41079	-5.39815	17.74482	29.40467	1.08162	0.92454	142.24007	151.30714	52.94345	0.34332	 	5245961.851	 	1.20778E-6	 	32428.00736	31.1487	 
1020.0	1.0	0.0	7.85008	7.40847	-5.42773	17.72366	29.32055	1.08054	0.92546	142.71375	151.6558	53.1261	0.34316	 	5778748.547	 	1.0922E-6	 	32272.45702	31.11007	 
1015.0	1.0	0.0	7.85254	7.40616	-5.45725	17.70252	29.23644	1.07946	0.92639	143.18645	152.00273	53.30843	0.343	 	6370387.606	 	9.86932E-7	 	32117.18332	31.05474	 
1010.0	1.0	0.0	7.85498	7.40385	-5.48671	17.68141	29.15232	1.07838	0.92732	143.65818	152.34791	53.49044	0.34284	 	7027894.218	 	8.91126E-7	 	31962.18452	30.99976	 
1005.0	1.0	0.0	7.85743	7.40155	-5.5161	17.66032	29.06819	1.07728	0.92826	144.12893	152.69136	53.67213	0.34268	 	7759179.252	 	8.03994E-7	 	31807.45893	30.94512	 
1000.0	1.0	0.0	7.85987	7.39925	-5.54543	17.63926	28.98407	1.07618	0.92921	144.5987	153.03309	53.8535	0.34252	 	8573172.442	 	7.24811E-7	 	31653.00488	30.89081	 
995.0	1.0	0.0	7.8623	7.39696	-5.57469	17.61822	28.89993	1.07508	0.93017	145.06751	153.37311	54.03455	0.34236	 	9479962.219	 	6.52906E-7	 	31498.82075	30.83683	 
990.0	1.0	0.0	7.86473	7.39467	-5.60389	17.59722	28.8158	1.07397	0.93113	145.53534	153.71142	54.21528	0.3422	 	1.049095513E7	 	5.87661E-7	 	31344.90493	30.78316	 
985.0	1.0	0.0	7.86716	7.39239	-5.63302	17.57625	28.73166	1.07285	0.9321	146.00221	154.04803	54.3957	0.34204	 	1.16190608E7	 	5.28504E-7	 	31191.25587	30.72981	 
980.0	1.0	0.0	7.86959	7.39011	-5.66209	17.55531	28.64751	1.07172	0.93308	146.46811	154.38295	54.5758	0.34188	 	1.287890131E7	 	4.7491E-7	 	31037.87201	30.67677	 
975.0	1.0	0.0	7.87201	7.38784	-5.6911	17.5344	28.56336	1.07059	0.93406	146.93305	154.71618	54.75558	0.34172	 	1.428705547E7	 	4.26394E-7	 	30884.75187	30.62403	 
970.0	1.0	0.0	7.87442	7.38557	-5.72003	17.51353	28.47921	1.06945	0.93506	147.39702	155.04774	54.93504	0.34156	 	1.58623356E7	 	3.8251E-7	 	30731.89395	30.57158	 
965.0	1.0	0.0	7.87684	7.38331	-5.74891	17.4927	28.39505	1.06831	0.93606	147.86004	155.37763	55.11419	0.3414	 	1.762610977E7	 	3.42849E-7	 	30579.29681	30.51943	 
960.0	1.0	0.0	7.87924	7.38105	-5.77771	17.4719	28.31089	1.06716	0.93707	148.32209	155.70586	55.29303	0.34124	 	1.960267173E7	 	3.07035E-7	 	30426.95901	30.46756	 
955.0	1.0	0.0	7.88165	7.3788	-5.80646	17.45115	28.22672	1.066	0.93809	148.78319	156.03243	55.47155	0.34108	 	2.181966569E7	 	2.7472E-7	 	30274.87916	30.41597	 
950.0	1.0	0.0	7.88405	7.37655	-5.83513	17.43044	28.14255	1.06484	0.93911	149.24334	156.35736	55.64975	0.34092	 	2.430858116E7	 	2.45588E-7	 	30123.0559	30.36465	 
945.0	1.0	0.0	7.88644	7.37431	-5.86374	17.40977	28.05837	1.06366	0.94015	149.70253	156.68065	55.82765	0.34076	 	2.710532092E7	 	2.19348E-7	 	29971.48786	30.31361	 
940.0	1.0	0.0	7.88884	7.37208	-5.89228	17.38914	27.97419	1.06249	0.94119	150.16076	157.0023	56.00523	0.3406	 	3.025085991E7	 	1.95733E-7	 	29820.17374	30.26282	 
935.0	1.0	0.0	7.89122	7.36985	-5.92076	17.36855	27.89	1.0613	0.94224	150.61805	157.32232	56.18249	0.34044	 	3.379200938E7	 	1.74499E-7	 	29669.11224	30.2123	 
933.97	1.0	0.0	7.89172	7.36939	-5.92664	17.3643	27.87258	1.06105	0.94246	150.71255	157.38834	56.21913	0.3404	 	3.45789191E7	 	1.70382E-7	 	29637.88591	 	 
930.0	1.0	0.0	7.89448	7.3668	-5.95961	17.30517	27.77834	1.06116	0.94237	151.09813	157.65354	56.36881	0.34026	 	3.781398162E7	 	1.55294E-7	 	29468.11539	40.19937	 
925.0	1.0	0.0	7.89795	7.36357	-6.00087	17.23121	27.661	1.06123	0.9423	151.58301	157.98622	56.55709	0.34009	 	4.236549225E7	 	1.38034E-7	 	29255.55346	42.51239	 
920.0	1.0	0.0	7.90139	7.36037	-6.04176	17.15791	27.54518	1.06124	0.94229	152.06664	158.31719	56.74495	0.33991	 	4.751220936E7	 	1.22568E-7	 	29044.64102	42.18249	 
915.0	1.0	0.0	7.9048	7.35719	-6.0823	17.08527	27.43069	1.06121	0.94232	152.54912	158.64656	56.9324	0.33974	 	5.333782509E7	 	1.08723E-7	 	28835.35044	41.85812	 
910.0	1.0	0.0	7.90818	7.35404	-6.12249	17.01326	27.31746	1.06112	0.9424	153.03051	158.9744	57.11949	0.33956	 	5.993859723E7	 	9.63429E-8	 	28627.65436	41.53921	 
905.0	1.0	0.0	7.91154	7.35092	-6.16233	16.9419	27.20553	1.06099	0.94252	153.51081	159.30071	57.3062	0.33939	 	6.742535921E7	 	8.52833E-8	 	28421.52581	41.22571	 
900.0	1.0	0.0	7.91487	7.34783	-6.20184	16.87116	27.09484	1.0608	0.94269	153.99002	159.6255	57.49254	0.33922	 	7.592586425E7	 	7.54137E-8	 	28216.93811	40.91754	 
895.0	1.0	0.0	7.91818	7.34476	-6.241	16.80105	26.98537	1.06056	0.9429	154.46812	159.94876	57.6785	0.33904	 	8.558752706E7	 	6.66154E-8	 	28013.86493	40.61463	 
890.0	1.0	0.0	7.92146	7.34172	-6.27984	16.73155	26.87707	1.06028	0.94315	154.94511	160.27047	57.86408	0.33887	 	9.65806423E7	 	5.87804E-8	 	27812.28033	40.31692	 
