T (C)	Fraction solid (wt)-TOTAL	Fraction liquid (wt)-LIQUID	Density (g/(cm)^3)-TOTAL	Molar volume (cm^3)-TOTAL	Volume change (%)-  	Average expansion coeff. (10e-6 1/K)-  	Thermal conductivity (W/(m*K))-TOTAL	Electrical resistivity (10e-6 Ohm*m)-TOTAL	Electrical conductivity (10e6 1/(Ohm*m))-TOTAL	Young's modulus (GPa)-TOTAL	Bulk modulus (GPa)-TOTAL	Shear modulus(GPa)-TOTAL	Poisson's ratio-TOTAL	Liquid viscosity (mPa s)-  	Total viscosity (mPa s)-  	Liquid diffusivity (10e-9 (m^2)/s)-  	Total diffusivity (10e-9 (m^2)/s)-  	Surface Tension (mN/m)-  	Enthalpy (J/mole)-TOTAL	Specific heat (J/(mole K))-TOTAL	Latent heat (J/mole)-TOTAL
1400.0	0.0	1.0	7.56339	7.70647	0.0	24.32538	28.56385	1.43511	0.69681	0.0	126.8249	0.0	0.5	8.8496	8.8496	0.92278	0.92278	1873.86777	63433.422	 	0.0
1395.0	0.0	1.0	7.56728	7.70251	-0.0513779	24.27661	28.49653	1.4342	0.69725	0.0	127.00592	0.0	0.5	8.94576	8.94576	0.91013	0.91013	1875.9537	63224.824	41.7196	0.0
1390.0	0.0	1.0	7.57116	7.69857	-0.1026	24.22789	28.42921	1.43329	0.6977	0.0	127.18693	0.0	0.5	9.04355	9.04355	0.89759	0.89759	1878.04243	63016.722	41.6204	0.0
1385.0	0.0	1.0	7.57503	7.69463	-0.15367	24.17924	28.3619	1.43237	0.69814	0.0	127.36795	0.0	0.5	9.14301	9.14301	0.88516	0.88516	1880.13402	62809.112	41.522	0.0
1380.0	0.0	1.0	7.57889	7.69071	-0.20458	24.13065	28.29458	1.43145	0.69859	0.0	127.54896	0.0	0.5	9.24418	9.24418	0.87283	0.87283	1882.22853	62601.993	41.4238	0.0
1375.0	0.0	1.0	7.58275	7.6868	-0.25534	24.08212	28.22726	1.43052	0.69905	0.0	127.72998	0.0	0.5	9.34709	9.34709	0.86061	0.86061	1884.32603	62395.361	41.3264	0.0
1374.82	0.0	1.0	7.58289	7.68666	-0.25714	24.0804	28.22487	1.43049	0.69906	0.0	127.73642	0.0	0.5	9.35078	9.35078	0.86018	0.86018	1884.40071	62388.017	41.28626	0.0020
1370.0	0.1665	0.8335	7.60844	7.66086	-0.5919	23.25384	28.84298	1.39574	0.71647	0.0797686	126.63294	0.0270368	0.47519	9.52989	42.59496	0.84154	0.18828	1888.08782	59850.731	526.17645	2338.484
1365.0	0.3004	0.6996	7.6294	7.63986	-0.86444	22.59464	29.34356	1.36775	0.73113	0.85612	125.77452	0.29419	0.45503	9.71906	359.83441	0.82265	0.0222197	1891.89359	57774.883	415.1696	4208.668
1360.0	0.40547	0.59453	7.64628	7.62293	-1.08409	22.07576	29.73808	1.34549	0.74323	2.87281	125.13823	0.99815	0.43906	9.91184	1234.45361	0.80419	0.00645711	1895.68187	56112.243	332.528	5666.124
1355.0	0.48934	0.51066	7.66016	7.60905	-1.26412	21.66228	30.05159	1.32737	0.75337	6.15004	124.67398	2.15608	0.42621	10.10834	2763.04404	0.78614	0.00287603	1899.45182	54753.465	271.7556	6820.196
1350.0	0.55729	0.44271	7.67182	7.5974	-1.41532	21.32549	30.30107	1.3124	0.76196	10.42897	124.34306	3.68329	0.41571	10.30861	4927.33159	0.7685	0.00160781	1903.2035	53622.405	226.212	7747.026
1345.0	0.61306	0.38694	7.68177	7.58741	-1.54495	21.04608	30.49877	1.29988	0.7693	15.38027	124.11753	5.4655	0.40703	10.51281	7662.2341	0.75125	0.00103074	1906.93702	52664.898	191.5014	8500.775
1340.0	0.65935	0.34065	7.69041	7.57875	-1.65737	20.81253	30.65455	1.28928	0.77563	20.7106	123.97735	7.39782	0.39978	10.72099	10897.9559	0.73439	7.22464E-4	1910.652	51841.682	164.6432	9120.703
1335.0	0.69815	0.30185	7.69803	7.57109	-1.75676	20.61371	30.77581	1.28022	0.78112	26.18782	123.90581	9.39543	0.39365	10.93336	14573.27229	0.71789	5.38587E-4	1914.34888	51123.805	143.5754	9635.762
1330.0	0.73099	0.26901	7.70484	7.56421	-1.84598	20.44191	30.8686	1.2724	0.78592	31.64578	123.89034	11.39631	0.38842	11.14994	18643.19384	0.70176	4.19702E-4	1918.02802	50489.587	126.8436	10067.627
1325.0	0.759	0.241	7.711	7.55795	-1.92723	20.29129	30.93785	1.26559	0.79014	36.97478	123.9208	13.35865	0.38393	11.37093	23079.87903	0.68598	3.37964E-4	1921.68987	49922.566	113.4042	10432.758
1320.0	0.78309	0.21691	7.71663	7.55221	-2.0017	20.15872	30.98742	1.25961	0.79389	42.10034	123.99016	15.25337	0.38003	11.5964	27866.24043	0.67053	2.79039E-4	1925.33443	49410.08	102.4972	10743.815
1315.0	0.80393	0.19607	7.72183	7.54688	-2.07091	20.04008	31.02056	1.25432	0.79725	46.98464	124.09147	17.06503	0.37663	11.82653	33000.62577	0.65542	2.34885E-4	1928.96233	48942.278	93.5604	11010.647
1310.0	0.82207	0.17793	7.72668	7.54192	-2.13533	19.93418	31.03988	1.24959	0.80026	51.60564	124.22048	18.78411	0.37365	12.06141	38488.50796	0.64064	2.0076E-4	1932.57327	48511.412	86.1732	11240.999
1305.0	0.83797	0.16203	7.73124	7.53722	-2.19627	19.83741	31.04746	1.24534	0.80299	55.96074	124.37222	20.40855	0.37101	12.30126	44345.90147	0.62616	1.73693E-4	1936.16854	48111.329	80.0166	11441.023
1300.0	0.85198	0.14802	7.73555	7.53277	-2.25395	19.74929	31.04509	1.24149	0.80548	60.0515	124.54389	21.93795	0.36867	12.54621	50593.35782	0.61199	1.51762E-4	1939.74783	47737.095	74.8468	11615.65
1297.12	0.85923	0.14077	7.73794	7.5303	-2.28609	19.70137	31.03945	1.23944	0.80682	62.27482	124.65163	22.77058	0.36744	12.68993	54366.94035	0.60395	1.4097E-4	1941.80759	47532.313	 	11705.543
1295.0	0.86954	0.13046	7.74079	7.52737	-2.3241	19.62444	31.03837	1.23781	0.80788	65.52238	124.86058	23.98717	0.36578	12.77612	58590.54695	0.59907	1.30631E-4	1942.99663	47309.392	85.5406	11844.196
1290.0	0.88972	0.11028	7.74685	7.52111	-2.40524	19.46674	31.02352	1.23446	0.81007	72.2989	125.3318	26.53159	0.36251	12.98273	68516.69944	0.58765	1.1135E-4	1945.74165	46840.455	93.7874	12114.424
1285.0	0.90533	0.0946728	7.75213	7.51564	-2.4763	19.33716	30.99559	1.23162	0.81194	77.97552	125.77735	28.66876	0.35994	13.19354	78451.2742	0.57641	9.69384E-5	1948.43765	46434.354	81.2202	12322.261
1280.0	0.91772	0.082276	7.75688	7.51071	-2.54024	19.22731	30.95837	1.22914	0.81358	82.79128	126.20424	30.48573	0.35787	13.40872	88549.14322	0.56534	8.56083E-5	1951.09344	46072.373	72.3962	12486.42
1275.0	0.92779	0.0722064	7.76122	7.50617	-2.59915	19.13137	30.9144	1.22693	0.81505	86.93156	126.61667	32.05062	0.35616	13.6284	98947.8064	0.55444	7.63649E-5	1953.71636	45742.495	65.9756	12618.919
1270.0	0.93612	0.0638801	7.76527	7.50193	-2.65424	19.04591	30.86538	1.22491	0.81639	90.53395	127.01798	33.41424	0.35472	13.85285	109767.098	0.5437	6.86156E-5	1956.31143	45436.673	61.1644	12727.799
1265.0	0.94311	0.0568881	7.7691	7.49792	-2.70625	18.96888	30.81247	1.22303	0.81764	93.70303	127.41056	34.61535	0.35349	14.08197	121116.4596	0.53312	6.19844E-5	1958.8819	45149.336	57.4674	12818.633
1260.0	0.94906	0.0509404	7.77274	7.49409	-2.75589	18.89824	30.75656	1.22127	0.81882	96.5203	127.79569	35.68431	0.35242	14.31602	133100.3425	0.5227	5.62202E-5	1961.43147	44876.507	54.5658	12895.393
1255.0	0.95418	0.0458206	7.77624	7.4904	-2.80373	18.83239	30.69822	1.2196	0.81994	99.04821	128.17467	36.64443	0.35148	14.55526	145819.5076	0.51243	5.1149E-5	1963.96363	44615.28	52.2454	12960.983
1250.0	0.95863	0.0413716	7.77962	7.48685	-2.84989	18.77107	30.63795	1.21801	0.82101	101.33496	128.54848	37.51369	0.35064	14.79961	159374.9422	0.50232	4.66455E-5	1966.4787	44363.482	50.3596	13017.575
1245.0	0.96253	0.0374706	7.7829	7.48338	-2.8949	18.71267	30.57606	1.21646	0.82205	103.42047	128.91759	38.30712	0.34989	15.04945	173871.001	0.49236	4.26162E-5	1968.98091	44119.462	48.804	13066.818
1240.0	0.96598	0.0340241	7.78611	7.48	-2.93872	18.6574	30.51287	1.21497	0.82307	105.33468	129.2828	39.03588	0.3492	15.30484	189415.1025	0.48255	3.89901E-5	1971.46927	43881.938	47.5048	13109.991
1235.0	0.96904	0.0309564	7.78924	7.47669	-2.98166	18.60434	30.44855	1.21351	0.82405	107.10307	129.64443	39.70959	0.34858	15.56595	206120.9597	0.47289	3.57116E-5	1973.94653	43649.906	46.4064	13148.098
1230.0	0.97179	0.0282106	7.79232	7.47345	-3.02378	18.55332	30.38331	1.21209	0.82502	108.74679	130.00277	40.3362	0.34801	15.83305	224111.2284	0.46337	3.2736E-5	1976.41312	43422.564	45.4684	13181.935
1225.0	0.97426	0.0257372	7.79534	7.47025	-3.06521	18.504	30.31727	1.21069	0.82598	110.28249	130.35812	40.92197	0.34747	16.10626	243516.2567	0.45399	3.00271E-5	1978.86985	43199.27	44.6588	13212.147
1220.0	0.9765	0.0234981	7.79832	7.46711	-3.10606	18.45603	30.25053	1.20931	0.82692	111.72396	130.71072	41.47211	0.34698	16.38576	264475.9836	0.44476	2.75552E-5	1981.31808	42979.498	43.9544	13239.255
1215.0	0.97854	0.0214616	7.80127	7.464	-3.14637	18.40935	30.18321	1.20795	0.82785	113.08347	131.0608	41.99124	0.34651	16.67185	287145.0385	0.43566	2.52948E-5	1983.75746	42762.816	43.3364	13263.689
1210.0	0.9804	0.0196014	7.80418	7.46093	-3.1862	18.36375	30.11536	1.2066	0.82878	114.37041	131.40858	42.48291	0.34608	16.96467	311688.321	0.4267	2.32248E-5	1986.18879	42548.868	42.7896	13285.804
1205.0	0.9821	0.0178951	7.80706	7.45789	-3.22559	18.3191	30.04706	1.20527	0.82969	115.59385	131.75403	42.95055	0.34566	17.26448	338289.8913	0.41788	2.13263E-5	1988.61208	42337.353	42.303	13305.899
1200.0	0.98368	0.0163239	7.80991	7.45489	-3.2646	18.27528	29.97836	1.20394	0.83061	116.76049	132.09736	43.39669	0.34527	17.57146	367147.1552	0.40919	1.95836E-5	1991.02778	42128.019	41.8668	13324.224
1195.0	0.98513	0.0148716	7.81274	7.45191	-3.30328	18.23215	29.9093	1.20262	0.83151	117.87713	132.43868	43.8239	0.3449	17.88599	398480.3262	0.40063	1.79825E-5	1993.43563	41920.653	41.4732	13340.99
1190.0	0.98647	0.0135258	7.81555	7.44895	-3.34162	18.18969	29.83993	1.20132	0.83242	118.94838	132.77805	44.23392	0.34454	18.20811	432526.9483	0.3922	1.65106E-5	1995.83543	41715.069	41.1168	13356.381
1185.0	0.98773	0.0122735	7.81833	7.44602	-3.37967	18.14778	29.77026	1.20001	0.83332	119.97909	133.11559	44.62861	0.34419	18.53836	469550.5567	0.3839	1.51568E-5	1998.22717	41511.112	40.7914	13370.551
1183.79	0.98801	0.0119852	7.819	7.44532	-3.38881	18.13774	29.75342	1.1997	0.83354	120.22183	133.19665	44.72158	0.34411	18.61933	478958.2617	0.38191	1.48468E-5	1998.80472	41462.158	 	13373.783
1180.0	0.99398	0.0060217	7.8222	7.4419	-3.43317	18.05645	29.72723	1.19763	0.83498	122.56696	133.44537	45.62849	0.3431	18.89618	519629.8063	0.37534	1.36491E-5	1996.58089	41239.085	54.4054	13453.194
1175.0	1.0	0.0	7.826	7.43776	-3.4869	17.96358	29.68318	1.19528	0.83662	126.7904	133.77425	47.23813	0.34203	 	574789.3582	 	1.22968E-5	 	40970.832	53.6506	13532.465
1170.0	1.0	0.0	7.82866	7.43523	-3.51962	17.9372	29.60794	1.19418	0.8374	127.20832	134.09148	47.39899	0.34189	 	621925.5859	 	1.13256E-5	 	40798.2993	34.50654	 
1165.0	1.0	0.0	7.8313	7.43272	-3.55223	17.91096	29.5327	1.19307	0.83817	127.62578	134.40777	47.55969	0.34174	 	673296.377	 	1.04252E-5	 	40621.2756	35.40474	 
1160.0	1.0	0.0	7.83394	7.43021	-3.58476	17.88473	29.45746	1.19196	0.83895	128.04268	134.72289	47.72023	0.3416	 	729314.1426	 	9.591E-6	 	40444.57068	35.34098	 
1155.0	1.0	0.0	7.83658	7.42771	-3.61722	17.85853	29.38222	1.19085	0.83974	128.45904	135.03686	47.8806	0.34145	 	790434.7469	 	8.8185E-6	 	40268.18379	35.27738	 
1150.0	1.0	0.0	7.83922	7.42522	-3.6496	17.83233	29.30697	1.18972	0.84053	128.87485	135.34968	48.0408	0.34131	 	857162.1844	 	8.10353E-6	 	40092.11424	35.21391	 
1145.0	1.0	0.0	7.84185	7.42273	-3.6819	17.80616	29.23172	1.18859	0.84133	129.2901	135.66135	48.20082	0.34116	 	930054.0152	 	7.44219E-6	 	39916.36127	35.15059	 
1140.0	1.0	0.0	7.84447	7.42025	-3.71412	17.78	29.15647	1.18746	0.84213	129.70481	135.97187	48.36068	0.34102	 	1009727.455	 	6.83079E-6	 	39740.92419	35.08742	 
1135.0	1.0	0.0	7.84709	7.41777	-3.74627	17.75386	29.08122	1.18632	0.84294	130.11897	136.28125	48.52037	0.34087	 	1096866.199	 	6.26588E-6	 	39565.80226	35.02439	 
1130.0	1.0	0.0	7.84971	7.4153	-3.77835	17.72773	29.00596	1.18518	0.84376	130.53258	136.58948	48.67989	0.34072	 	1192228.084	 	5.74423E-6	 	39390.99475	34.9615	 
1125.0	1.0	0.0	7.85232	7.41283	-3.81034	17.70163	28.9307	1.18403	0.84458	130.94564	136.89658	48.83923	0.34058	 	1296653.678	 	5.2628E-6	 	39216.50094	34.89876	 
1120.0	1.0	0.0	7.85492	7.41037	-3.84226	17.67554	28.85544	1.18287	0.8454	131.35814	137.20254	48.99841	0.34043	 	1411075.941	 	4.81875E-6	 	39042.32012	34.83617	 
1115.0	1.0	0.0	7.85753	7.40792	-3.87411	17.64946	28.78017	1.18171	0.84623	131.7701	137.50737	49.15741	0.34029	 	1536531.078	 	4.40942E-6	 	38868.45156	34.77371	 
1110.0	1.0	0.0	7.86012	7.40547	-3.90588	17.6234	28.7049	1.18054	0.84707	132.18151	137.81107	49.31625	0.34014	 	1674170.752	 	4.03233E-6	 	38694.89452	34.71141	 
1105.0	1.0	0.0	7.86272	7.40303	-3.93757	17.59736	28.62963	1.17936	0.84792	132.59237	138.11364	49.47491	0.34	 	1825275.83	 	3.68515E-6	 	38521.64832	34.64924	 
1100.0	1.0	0.0	7.8653	7.40059	-3.96919	17.57134	28.55436	1.17818	0.84877	133.00267	138.41509	49.6334	0.33985	 	1991271.874	 	3.36569E-6	 	38348.71221	34.58722	 
1095.0	1.0	0.0	7.86789	7.39816	-4.00073	17.54533	28.47908	1.17699	0.84962	133.41243	138.71542	49.79172	0.3397	 	2173746.605	 	3.07193E-6	 	38176.08547	34.52535	 
1090.0	1.0	0.0	7.87047	7.39573	-4.03219	17.51934	28.4038	1.1758	0.85049	133.82163	139.01463	49.94987	0.33956	 	2374469.606	 	2.80197E-6	 	38003.76738	34.46362	 
1085.0	1.0	0.0	7.87304	7.39332	-4.06358	17.49337	28.32852	1.1746	0.85135	134.23029	139.31273	50.10785	0.33941	 	2595414.573	 	2.55404E-6	 	37831.75724	34.40203	 
1080.0	1.0	0.0	7.87561	7.3909	-4.09489	17.46741	28.25323	1.17339	0.85223	134.63839	139.60971	50.26566	0.33927	 	2838784.465	 	2.32648E-6	 	37660.05432	34.34058	 
1075.0	1.0	0.0	7.87818	7.38849	-4.12613	17.44147	28.17794	1.17218	0.85311	135.04594	139.90559	50.42329	0.33912	 	3107039.932	 	2.11777E-6	 	37488.6579	34.27928	 
1070.0	1.0	0.0	7.88074	7.38609	-4.15729	17.41555	28.10265	1.17096	0.854	135.45294	140.20036	50.58076	0.33898	 	3402931.512	 	1.92645E-6	 	37317.56727	34.21813	 
1065.0	1.0	0.0	7.8833	7.3837	-4.18838	17.38964	28.02735	1.16974	0.85489	135.85938	140.49402	50.73805	0.33883	 	3729536.084	 	1.7512E-6	 	37146.7817	34.15711	 
1060.0	1.0	0.0	7.88585	7.38131	-4.21939	17.36375	27.95205	1.16851	0.85579	136.26528	140.78659	50.89517	0.33869	 	4090298.203	 	1.59078E-6	 	36976.30049	34.09624	 
1055.0	1.0	0.0	7.8884	7.37892	-4.25033	17.33788	27.87675	1.16727	0.8567	136.67062	141.07806	51.05212	0.33854	 	4489076.994	 	1.44403E-6	 	36806.12291	34.03551	 
1050.0	1.0	0.0	7.89094	7.37655	-4.28119	17.31202	27.80144	1.16602	0.85761	137.07541	141.36843	51.20889	0.33839	 	4930199.404	 	1.30988E-6	 	36636.24827	33.97493	 
1045.0	1.0	0.0	7.89348	7.37417	-4.31197	17.28618	27.72614	1.16477	0.85854	137.47965	141.65771	51.3655	0.33825	 	5418520.713	 	1.18733E-6	 	36466.67583	33.91449	 
1040.0	1.0	0.0	7.89602	7.37181	-4.34268	17.26036	27.65082	1.16352	0.85946	137.88334	141.9459	51.52193	0.3381	 	5959493.371	 	1.07545E-6	 	36297.40488	33.85419	 
1035.0	1.0	0.0	7.89854	7.36944	-4.37332	17.23455	27.57551	1.16225	0.8604	138.28647	142.23301	51.67819	0.33796	 	6559245.346	 	9.73398E-7	 	36128.43472	33.79403	 
1030.0	1.0	0.0	7.90107	7.36709	-4.40388	17.20876	27.50019	1.16098	0.86134	138.68905	142.51903	51.83427	0.33781	 	7224669.405	 	8.80366E-7	 	35959.76463	33.73402	 
1025.0	1.0	0.0	7.90359	7.36474	-4.43437	17.18299	27.42487	1.1597	0.86229	139.09108	142.80397	51.99019	0.33767	 	7963524.908	 	7.95621E-7	 	35791.39389	33.67415	 
1020.0	1.0	0.0	7.90611	7.3624	-4.46478	17.15724	27.34954	1.15842	0.86325	139.49255	143.08783	52.14593	0.33752	 	8784554.006	 	7.18482E-7	 	35623.32182	33.61441	 
1015.0	1.0	0.0	7.90862	7.36006	-4.49511	17.1315	27.27421	1.15713	0.86421	139.89348	143.37061	52.3015	0.33738	 	9697614.365	 	6.48318E-7	 	35455.54767	33.55483	 
1010.0	1.0	0.0	7.91112	7.35773	-4.52538	17.10577	27.19888	1.15583	0.86518	140.29384	143.65233	52.45689	0.33723	 	1.071383092E7	 	5.84547E-7	 	35288.07075	33.49538	 
1005.0	1.0	0.0	7.91363	7.3554	-4.55556	17.08007	27.12354	1.15452	0.86616	140.69366	143.93297	52.61211	0.33708	 	1.184576957E7	 	5.2663E-7	 	35120.89037	33.43608	 
1000.0	1.0	0.0	7.91612	7.35308	-4.58568	17.05438	27.0482	1.15321	0.86715	141.09292	144.21254	52.76716	0.33694	 	1.310763608E7	 	4.74069E-7	 	34954.00577	33.37692	 
995.0	1.0	0.0	7.91862	7.35077	-4.61571	17.02871	26.97286	1.15189	0.86814	141.49162	144.49105	52.92204	0.33679	 	1.451550419E7	 	4.26408E-7	 	34787.4163	33.3179	 
990.0	1.0	0.0	7.92111	7.34846	-4.64568	17.00305	26.89752	1.15056	0.86914	141.88977	144.7685	53.07674	0.33665	 	1.608757733E7	 	3.83222E-7	 	34621.12122	33.25902	 
985.0	1.0	0.0	7.92359	7.34615	-4.67557	16.97742	26.82217	1.14922	0.87015	142.28737	145.04489	53.23126	0.3365	 	1.784448931E7	 	3.44124E-7	 	34455.11983	33.20028	 
980.0	1.0	0.0	7.92607	7.34385	-4.70538	16.95179	26.74681	1.14788	0.87117	142.68441	145.32022	53.38562	0.33636	 	1.980964998E7	 	3.08754E-7	 	34289.41142	33.14168	 
975.0	1.0	0.0	7.92854	7.34156	-4.73512	16.92619	26.67145	1.14653	0.8722	143.0809	145.5945	53.5398	0.33621	 	2.200964309E7	 	2.76784E-7	 	34123.9953	33.08322	 
970.0	1.0	0.0	7.93101	7.33928	-4.76479	16.9006	26.59609	1.14517	0.87323	143.47684	145.86772	53.6938	0.33607	 	2.447468459E7	 	2.47909E-7	 	33958.87076	33.02491	 
965.0	1.0	0.0	7.93348	7.337	-4.79438	16.87503	26.52073	1.14381	0.87427	143.87221	146.1399	53.84763	0.33592	 	2.723915119E7	 	2.21854E-7	 	33794.03709	32.96673	 
960.0	1.0	0.0	7.93594	7.33472	-4.8239	16.84948	26.44536	1.14244	0.87532	144.26704	146.41103	54.00129	0.33577	 	3.034219038E7	 	1.98361E-7	 	33629.4936	32.9087	 
955.0	1.0	0.0	7.93839	7.33245	-4.85334	16.82394	26.36999	1.14106	0.87638	144.6613	146.68112	54.15477	0.33563	 	3.382842539E7	 	1.77197E-7	 	33465.23958	32.8508	 
950.0	1.0	0.0	7.94085	7.33019	-4.88272	16.79842	26.29461	1.13967	0.87745	145.05502	146.95016	54.30808	0.33548	 	3.774877052E7	 	1.58148E-7	 	33301.27433	32.79305	 
945.0	1.0	0.0	7.94329	7.32793	-4.91201	16.77291	26.21924	1.13827	0.87852	145.44817	147.21817	54.46122	0.33534	 	4.216137523E7	 	1.41017E-7	 	33137.59714	32.73544	 
940.0	1.0	0.0	7.94573	7.32568	-4.94124	16.74743	26.14385	1.13687	0.87961	145.84077	147.48514	54.61418	0.33519	 	4.713271836E7	 	1.25626E-7	 	32974.20733	32.67796	 
935.0	1.0	0.0	7.94817	7.32343	-4.97039	16.72196	26.06847	1.13546	0.8807	146.23282	147.75108	54.76696	0.33505	 	5.273887781E7	 	1.11809E-7	 	32811.1042	32.62063	 
930.0	1.0	0.0	7.9506	7.32119	-4.99946	16.6965	25.99307	1.13404	0.8818	146.6243	148.01598	54.91957	0.3349	 	5.906700529E7	 	9.94172E-8	 	32648.28704	32.56343	 
925.0	1.0	0.0	7.95303	7.31896	-5.02846	16.67106	25.91768	1.13261	0.88291	147.01523	148.27986	55.072	0.33475	 	6.621704119E7	 	8.83137E-8	 	32485.75517	32.50637	 
920.0	1.0	0.0	7.95545	7.31673	-5.05739	16.64564	25.84228	1.13118	0.88404	147.40561	148.54271	55.22426	0.33461	 	7.430371089E7	 	7.83739E-8	 	32323.50787	32.44946	 
915.0	1.0	0.0	7.95787	7.3145	-5.08625	16.62024	25.76688	1.12973	0.88517	147.79543	148.80454	55.37634	0.33446	 	8.345885109E7	 	6.94841E-8	 	32161.54447	32.39268	 
910.0	1.0	0.0	7.96029	7.31229	-5.11503	16.59485	25.69147	1.12828	0.8863	148.18469	149.06535	55.52825	0.33432	 	9.383412411E7	 	6.15412E-8	 	31999.86428	32.33604	 
905.0	1.0	0.0	7.9627	7.31007	-5.14374	16.56948	25.61606	1.12682	0.88745	148.57339	149.32514	55.67998	0.33417	 	1.056041881E8	 	5.4451E-8	 	31838.46658	32.27954	 
900.0	1.0	0.0	7.9651	7.30787	-5.17238	16.54413	25.54065	1.12535	0.88861	148.96154	149.58392	55.83154	0.33403	 	1.189704041E8	 	4.81284E-8	 	31677.35069	32.22318	 
895.0	1.0	0.0	7.9675	7.30566	-5.20094	16.51879	25.46523	1.12387	0.88978	149.34912	149.84168	55.98292	0.33388	 	1.341651767E8	 	4.24958E-8	 	31516.51593	32.16695	 
890.0	1.0	0.0	7.9699	7.30347	-5.22943	16.49348	25.38981	1.12239	0.89096	149.73615	150.09843	56.13412	0.33374	 	1.514570402E8	 	3.74829E-8	 	31355.9616	32.11087	 
885.0	1.0	0.0	7.97229	7.30128	-5.25785	16.46817	25.31438	1.12089	0.89215	150.12263	150.35417	56.28515	0.33359	 	1.711566295E8	 	3.30261E-8	 	31195.68702	32.05492	 
880.0	1.0	0.0	7.97467	7.29909	-5.28619	16.44289	25.23895	1.11939	0.89335	150.50854	150.6089	56.436	0.33344	 	1.936236936E8	 	2.90679E-8	 	31035.69149	31.99911	 
875.0	1.0	0.0	7.97705	7.29692	-5.31446	16.41762	25.16352	1.11788	0.89455	150.8939	150.86264	56.58668	0.3333	 	2.192753468E8	 	2.55562E-8	 	30875.97433	31.94343	 
870.0	1.0	0.0	7.97943	7.29474	-5.34266	16.39236	25.08808	1.11635	0.89577	151.27869	151.11537	56.73718	0.33315	 	2.485957876E8	 	2.24438E-8	 	30716.53486	31.88789	 
865.0	1.0	0.0	7.9818	7.29258	-5.37079	16.36713	25.01263	1.11482	0.897	151.66293	151.3671	56.8875	0.33301	 	2.821477597E8	 	1.96884E-8	 	30557.37237	31.8325	 
