T (C)	Fraction solid (wt)-TOTAL	Fraction liquid (wt)-LIQUID	Density (g/(cm)^3)-TOTAL	Molar volume (cm^3)-TOTAL	Volume change (%)-  	Average expansion coeff. (10e-6 1/K)-  	Thermal conductivity (W/(m*K))-TOTAL	Electrical resistivity (10e-6 Ohm*m)-TOTAL	Electrical conductivity (10e6 1/(Ohm*m))-TOTAL	Young's modulus (GPa)-TOTAL	Bulk modulus (GPa)-TOTAL	Shear modulus(GPa)-TOTAL	Poisson's ratio-TOTAL	Liquid viscosity (mPa s)-  	Total viscosity (mPa s)-  	Liquid diffusivity (10e-9 (m^2)/s)-  	Total diffusivity (10e-9 (m^2)/s)-  	Surface Tension (mN/m)-  	Enthalpy (J/mole)-TOTAL	Specific heat (J/(mole K))-TOTAL	Latent heat (J/mole)-TOTAL
1400.0	0.83587	0.16413	8.28486	7.47278	0.0	19.14379	35.33609	1.16007	0.86202	55.68528	139.61141	20.10822	0.38464	8.93023	17344.89162	0.91445	4.70815E-4	1819.71252	48068.557	 	0.0
1395.0	0.88732	0.11268	8.30416	7.45498	-0.2383	18.58808	35.46341	1.15245	0.86772	71.57796	140.15575	25.98821	0.37712	9.17684	23352.12441	0.88721	3.48655E-4	1821.09026	47186.778	176.3558	678.278
1390.0	0.91909	0.0809131	8.31693	7.44315	-0.39649	18.23934	35.50953	1.1475	0.87146	83.13634	140.64761	30.28883	0.37239	9.41877	28513.65241	0.86183	2.84685E-4	1822.28528	46576.867	121.9822	1085.183
1385.0	0.94007	0.0599305	8.32612	7.4346	-0.51092	18.00379	35.50986	1.14404	0.8741	91.65445	141.10921	33.47014	0.3692	9.65723	33122.14432	0.83803	2.44339E-4	1823.35108	46113.288	92.7158	1346.25
1380.0	0.95468	0.0453215	8.33321	7.42799	-0.59943	17.8353	35.48244	1.14147	0.87606	98.094	141.55188	35.88157	0.36691	9.89378	37409.5673	0.81552	2.15683E-4	1824.32665	45735.046	75.6484	1522.47
1375.0	0.96529	0.0347142	8.33897	7.4226	-0.67148	17.7094	35.43729	1.13947	0.8776	103.09872	141.98214	37.75942	0.36521	10.12934	41540.46237	0.79415	1.93648E-4	1825.23911	45409.844	65.0404	1646.133
1370.0	0.97325	0.0267453	8.34386	7.41803	-0.73267	17.61161	35.38019	1.13785	0.87885	107.09248	142.40339	39.26032	0.36388	10.36478	45629.9411	0.77376	1.75758E-4	1826.10934	45119.358	58.0972	1735.562
1365.0	0.97941	0.0205877	8.34816	7.41402	-0.78636	17.53323	35.31476	1.13648	0.87991	110.35827	142.81792	40.48922	0.36281	10.60059	49762.2784	0.75424	1.60672E-4	1826.95294	44852.589	53.3538	1801.752
1360.0	0.98428	0.0157162	8.35203	7.41041	-0.83468	17.46871	35.2433	1.13531	0.88081	113.08741	143.22707	41.51733	0.36193	10.83779	54001.33572	0.73548	1.47607E-4	1827.7805	44602.618	49.9942	1851.619
1355.0	0.98821	0.0117856	8.35561	7.40709	-0.87905	17.4144	35.16734	1.13428	0.88162	115.41273	143.63177	42.39416	0.36119	11.07672	58398.3694	0.71741	1.36076E-4	1828.60049	44364.917	47.5402	1889.688
1350.0	0.99144	0.00855917	8.35895	7.404	-0.9204	17.36789	35.08794	1.13336	0.88233	117.4282	144.03273	43.15483	0.36055	11.31796	62997.01536	0.69997	1.25755E-4	1829.41777	44136.421	45.6992	1919.019
1345.0	0.99413	0.00587071	8.36212	7.40108	-0.95946	17.32724	35.00589	1.13251	0.88299	119.20234	144.43032	43.82495	0.35998	11.56154	67836.4634	0.68311	1.16424E-4	1830.23899	43914.994	44.2854	1941.746
1340.0	0.9964	0.00360308	8.36516	7.3983	-0.99671	17.29124	34.92175	1.13174	0.8836	120.7854	144.82489	44.42334	0.35948	11.80811	72953.32913	0.66678	1.07924E-4	1831.06637	43699.11	43.1768	1959.392
1335.0	0.99833	0.00166808	8.36808	7.39563	-1.03251	17.25896	34.83591	1.13101	0.88417	122.21479	145.2167	44.96403	0.35903	12.0582	78382.88827	0.65092	1.00136E-4	1831.90193	43487.653	42.2914	1973.068
1330.0	1.0	0.0	8.37093	7.39304	-1.06712	17.22969	34.74867	1.13032	0.8847	123.5191	145.60591	45.45773	0.35861	 	84160.5579	 	9.2972E-5	 	43279.794	41.5718	1983.602
1325.0	1.0	0.0	8.3735	7.39078	-1.09735	17.21232	34.65444	1.12986	0.88507	123.98447	145.9805	45.63466	0.35845	 	89807.92546	 	8.6854E-5	 	43094.15664	37.12747	 
1320.0	1.0	0.0	8.37604	7.38854	-1.12733	17.19551	34.56039	1.12939	0.88543	124.44881	146.35336	45.81124	0.35828	 	95879.03959	 	8.10998E-5	 	42906.86806	37.45772	 
1315.0	1.0	0.0	8.37858	7.3863	-1.15728	17.17867	34.46634	1.12892	0.8858	124.91237	146.72441	45.98757	0.35811	 	102402.7331	 	7.56949E-5	 	42719.84681	37.40425	 
1310.0	1.0	0.0	8.38111	7.38407	-1.18718	17.16182	34.37228	1.12844	0.88618	125.37515	147.09367	46.16367	0.35794	 	109415.789	 	7.06202E-5	 	42533.09257	37.35085	 
1305.0	1.0	0.0	8.38365	7.38184	-1.21705	17.14494	34.27823	1.12797	0.88655	125.83715	147.46115	46.33952	0.35777	 	116958.214	 	6.58574E-5	 	42346.60506	37.2975	 
1300.0	1.0	0.0	8.38618	7.37961	-1.24688	17.12803	34.18418	1.12749	0.88693	126.29837	147.82685	46.51512	0.35761	 	125073.5536	 	6.13891E-5	 	42160.38395	37.24422	 
1295.0	1.0	0.0	8.38871	7.37738	-1.27666	17.11111	34.09013	1.127	0.88731	126.75881	148.19077	46.69048	0.35744	 	133809.2177	 	5.7199E-5	 	41974.42896	37.191	 
1290.0	1.0	0.0	8.39124	7.37516	-1.30641	17.09416	33.99608	1.12652	0.88769	127.21848	148.55293	46.8656	0.35727	 	143216.8568	 	5.32713E-5	 	41788.73979	37.13783	 
1285.0	1.0	0.0	8.39377	7.37294	-1.33612	17.07719	33.90202	1.12603	0.88808	127.67737	148.91333	47.04048	0.3571	 	153352.7728	 	4.95912E-5	 	41603.31613	37.08473	 
1280.0	1.0	0.0	8.39629	7.37072	-1.36579	17.0602	33.80797	1.12554	0.88846	128.13547	149.27197	47.21511	0.35693	 	164278.3479	 	4.61445E-5	 	41418.15771	37.03168	 
1275.0	1.0	0.0	8.39881	7.36851	-1.39542	17.04319	33.71392	1.12504	0.88885	128.5928	149.62886	47.3895	0.35676	 	176060.5568	 	4.29178E-5	 	41233.26422	36.9787	 
1270.0	1.0	0.0	8.40133	7.36629	-1.42501	17.02615	33.61987	1.12455	0.88925	129.04935	149.98401	47.56364	0.3566	 	188772.5152	 	3.98985E-5	 	41048.63538	36.92577	 
1265.0	1.0	0.0	8.40385	7.36409	-1.45457	17.00909	33.52581	1.12405	0.88964	129.50512	150.33743	47.73755	0.35643	 	202494.0574	 	3.70743E-5	 	40864.27089	36.8729	 
1260.0	1.0	0.0	8.40637	7.36188	-1.48408	16.99201	33.43176	1.12355	0.89004	129.96012	150.68912	47.9112	0.35626	 	217312.4342	 	3.44339E-5	 	40680.17046	36.82009	 
1255.0	1.0	0.0	8.40889	7.35968	-1.51355	16.97491	33.33771	1.12304	0.89044	130.41433	151.03908	48.08462	0.35609	 	233323.0129	 	3.19665E-5	 	40496.33381	36.76733	 
1250.0	1.0	0.0	8.4114	7.35748	-1.54298	16.95778	33.24366	1.12254	0.89084	130.86777	151.38732	48.25778	0.35592	 	250630.1228	 	2.96617E-5	 	40312.76065	36.71463	 
1245.0	1.0	0.0	8.41391	7.35528	-1.57237	16.94063	33.14961	1.12202	0.89125	131.32042	151.73385	48.43071	0.35576	 	269347.9363	 	2.75098E-5	 	40129.45069	36.66199	 
1240.0	1.0	0.0	8.41642	7.35309	-1.60172	16.92347	33.05555	1.12151	0.89165	131.7723	152.07868	48.60339	0.35559	 	289601.4764	 	2.55016E-5	 	39946.40365	36.60941	 
1235.0	1.0	0.0	8.41893	7.3509	-1.63104	16.90627	32.9615	1.12099	0.89206	132.2234	152.42181	48.77582	0.35542	 	311527.6941	 	2.36284E-5	 	39763.61923	36.55688	 
1230.0	1.0	0.0	8.42144	7.34871	-1.66031	16.88906	32.86745	1.12048	0.89248	132.67372	152.76324	48.94802	0.35525	 	335276.7304	 	2.18819E-5	 	39581.09716	36.50441	 
1225.0	1.0	0.0	8.42394	7.34653	-1.68954	16.87182	32.7734	1.11995	0.89289	133.12326	153.10299	49.11996	0.35508	 	361013.2476	 	2.02544E-5	 	39398.83715	36.452	 
1220.0	1.0	0.0	8.42644	7.34435	-1.71873	16.85456	32.67934	1.11943	0.89331	133.57203	153.44105	49.29166	0.35491	 	388917.9422	 	1.87384E-5	 	39216.83893	36.39964	 
1215.0	1.0	0.0	8.42894	7.34217	-1.74788	16.83728	32.58529	1.1189	0.89374	134.02001	153.77744	49.46312	0.35475	 	419189.216	 	1.7327E-5	 	39035.10219	36.34735	 
1210.0	1.0	0.0	8.43144	7.33999	-1.77699	16.81998	32.49124	1.11837	0.89416	134.46722	154.11215	49.63433	0.35458	 	452045.035	 	1.60136E-5	 	38853.62667	36.2951	 
1205.0	1.0	0.0	8.43394	7.33782	-1.80605	16.80265	32.39719	1.11783	0.89459	134.91364	154.44521	49.8053	0.35441	 	487724.9944	 	1.47921E-5	 	38672.41209	36.24292	 
1200.0	1.0	0.0	8.43643	7.33565	-1.83508	16.7853	32.30313	1.1173	0.89502	135.35929	154.7766	49.97602	0.35424	 	526492.6172	 	1.36566E-5	 	38491.45815	36.19079	 
1195.0	1.0	0.0	8.43892	7.33349	-1.86407	16.76793	32.20908	1.11676	0.89545	135.80416	155.10634	50.1465	0.35407	 	568637.9121	 	1.26015E-5	 	38310.76459	36.13871	 
1190.0	1.0	0.0	8.44141	7.33132	-1.89301	16.75054	32.11503	1.11621	0.89589	136.24825	155.43443	50.31673	0.35391	 	614480.2225	 	1.16216E-5	 	38130.33113	36.08669	 
1185.0	1.0	0.0	8.4439	7.32916	-1.92192	16.73313	32.02098	1.11566	0.89633	136.69157	155.76088	50.48672	0.35374	 	664371.4033	 	1.07122E-5	 	37950.15748	36.03473	 
1180.0	1.0	0.0	8.44638	7.32701	-1.95078	16.71569	31.92693	1.11511	0.89677	137.1341	156.0857	50.65646	0.35357	 	718699.3617	 	9.86847E-6	 	37770.24336	35.98282	 
1175.0	1.0	0.0	8.44887	7.32485	-1.9796	16.69823	31.83287	1.11456	0.89721	137.57585	156.40888	50.82596	0.3534	 	777892.011	 	9.08617E-6	 	37590.58851	35.93097	 
1170.0	1.0	0.0	8.45135	7.3227	-2.00838	16.68075	31.73882	1.114	0.89766	138.01683	156.73044	50.99521	0.35323	 	842421.6842	 	8.3612E-6	 	37411.19264	35.87917	 
1165.0	1.0	0.0	8.45383	7.32055	-2.03712	16.66324	31.64477	1.11344	0.89811	138.45703	157.05038	51.16421	0.35307	 	912810.067	 	7.68972E-6	 	37232.05548	35.82743	 
1160.0	1.0	0.0	8.45631	7.31841	-2.06581	16.64571	31.55072	1.11288	0.89857	138.89645	157.36871	51.33297	0.3529	 	989633.7135	 	7.06812E-6	 	37053.17674	35.77575	 
1155.0	1.0	0.0	8.45878	7.31627	-2.09447	16.62817	31.45666	1.11231	0.89903	139.33509	157.68542	51.50149	0.35273	 	1073530.218	 	6.49301E-6	 	36874.55617	35.72411	 
1150.0	1.0	0.0	8.46125	7.31413	-2.12308	16.61059	31.36261	1.11174	0.89949	139.77295	158.00054	51.66975	0.35256	 	1165205.125	 	5.96122E-6	 	36696.19348	35.67254	 
1145.0	1.0	0.0	8.46372	7.31199	-2.15165	16.593	31.26856	1.11117	0.89995	140.21003	158.31406	51.83777	0.35239	 	1265439.673	 	5.46975E-6	 	36518.08841	35.62101	 
1140.0	1.0	0.0	8.46619	7.30986	-2.18018	16.57538	31.17451	1.11059	0.90042	140.64634	158.62598	52.00555	0.35222	 	1375099.478	 	5.01581E-6	 	36340.24066	35.56955	 
1135.0	1.0	0.0	8.46866	7.30773	-2.20867	16.55774	31.08046	1.11001	0.90089	141.08186	158.93632	52.17308	0.35206	 	1495144.271	 	4.59677E-6	 	36162.64999	35.51813	 
1130.0	1.0	0.0	8.47112	7.30561	-2.23711	16.54008	30.9864	1.10943	0.90137	141.51661	159.24508	52.34036	0.35189	 	1626638.838	 	4.21017E-6	 	35985.31611	35.46678	 
1125.0	1.0	0.0	8.47358	7.30349	-2.26552	16.5224	30.89235	1.10884	0.90184	141.95058	159.55227	52.50739	0.35172	 	1770765.313	 	3.85371E-6	 	35808.23875	35.41547	 
1122.68	1.0	0.0	8.47473	7.3025	-2.2787	16.51418	30.84865	1.10857	0.90207	142.15194	159.69445	52.58492	0.35164	 	1842386.007	 	3.69775E-6	 	35726.05547	35.37808	 
1120.0	1.0	0.0	8.47603	7.30138	-2.2937	16.50529	30.79833	1.10825	0.90233	142.38437	159.8589	52.67439	0.35155	 	1928913.897	 	3.5251E-6	 	35631.11818	35.46406	 
1115.0	1.0	0.0	8.47846	7.29929	-2.32169	16.48864	30.70435	1.10765	0.90281	142.81785	160.16477	52.84131	0.35138	 	2102549.077	 	3.22238E-6	 	35454.0145	35.42074	 
1110.0	1.0	0.0	8.48089	7.2972	-2.34966	16.47192	30.61036	1.10705	0.9033	143.25052	160.46901	53.00797	0.35122	 	2293234.791	 	2.94379E-6	 	35277.1925	35.3644	 
1105.0	1.0	0.0	8.48331	7.29511	-2.37759	16.45513	30.51636	1.10644	0.9038	143.68235	160.77161	53.17436	0.35105	 	2502781.737	 	2.68757E-6	 	35100.65085	35.30833	 
1100.0	1.0	0.0	8.48574	7.29302	-2.40551	16.43828	30.42237	1.10584	0.90429	144.11337	161.07257	53.34049	0.35088	 	2733207.07	 	2.45207E-6	 	34924.38827	35.25252	 
1095.0	1.0	0.0	8.48816	7.29094	-2.43339	16.42137	30.32838	1.10522	0.90479	144.54356	161.37192	53.50636	0.35071	 	2986759.755	 	2.23573E-6	 	34748.40351	35.19695	 
1090.0	1.0	0.0	8.49059	7.28886	-2.46125	16.4044	30.23438	1.10461	0.9053	144.97293	161.66966	53.67197	0.35055	 	3265948.627	 	2.03714E-6	 	34572.69533	35.14164	 
1085.0	1.0	0.0	8.49301	7.28678	-2.48907	16.38737	30.14039	1.10399	0.90581	145.40149	161.9658	53.83731	0.35038	 	3573574.86	 	1.85495E-6	 	34397.26255	35.08656	 
1080.0	1.0	0.0	8.49543	7.2847	-2.51687	16.37027	30.04639	1.10337	0.90632	145.82923	162.26034	54.0024	0.35021	 	3912768.073	 	1.68791E-6	 	34222.10401	35.03171	 
1075.0	1.0	0.0	8.49785	7.28263	-2.54463	16.35313	29.95239	1.10274	0.90683	146.25615	162.55329	54.16722	0.35004	 	4287027.418	 	1.53486E-6	 	34047.21858	34.97709	 
1070.0	1.0	0.0	8.50027	7.28056	-2.57237	16.33592	29.85839	1.10211	0.90735	146.68226	162.84466	54.33179	0.34988	 	4700268.359	 	1.39472E-6	 	33872.60516	34.92268	 
1065.0	1.0	0.0	8.50269	7.27849	-2.60007	16.31867	29.76439	1.10147	0.90788	147.10755	163.13446	54.4961	0.34971	 	5156875.439	 	1.2665E-6	 	33698.26268	34.8685	 
1060.0	1.0	0.0	8.50511	7.27642	-2.62773	16.30136	29.67039	1.10083	0.9084	147.53204	163.4227	54.66015	0.34954	 	5661761.941	 	1.14925E-6	 	33524.1901	34.81452	 
1055.0	1.0	0.0	8.50752	7.27435	-2.65537	16.28399	29.57638	1.10019	0.90893	147.95572	163.70938	54.82393	0.34937	 	6220438.665	 	1.04211E-6	 	33350.38639	34.76074	 
1050.0	1.0	0.0	8.50993	7.27229	-2.68297	16.26658	29.48238	1.09954	0.90947	148.37859	163.99451	54.98747	0.3492	 	6839090.303	 	9.44273E-7	 	33176.85058	34.70716	 
1045.0	1.0	0.0	8.51234	7.27023	-2.71053	16.24912	29.38837	1.09889	0.91001	148.80065	164.27809	55.15074	0.34904	 	7524664.756	 	8.54997E-7	 	33003.5817	34.65378	 
1040.0	1.0	0.0	8.51475	7.26817	-2.73807	16.23162	29.29436	1.09824	0.91055	149.2219	164.56015	55.31376	0.34887	 	8284972.025	 	7.73588E-7	 	32830.57882	34.60058	 
1035.0	1.0	0.0	8.51716	7.26612	-2.76556	16.21406	29.20035	1.09758	0.9111	149.64236	164.84067	55.47652	0.3487	 	9128799.51	 	6.99408E-7	 	32657.84102	34.54756	 
1030.0	1.0	0.0	8.51957	7.26407	-2.79302	16.19646	29.10634	1.09691	0.91165	150.062	165.11968	55.63902	0.34853	 	1.006604176E7	 	6.31862E-7	 	32485.36743	34.49472	 
1025.0	1.0	0.0	8.52197	7.26202	-2.82044	16.17882	29.01233	1.09625	0.9122	150.48085	165.39717	55.80126	0.34836	 	1.110785001E7	 	5.70403E-7	 	32313.15718	34.44205	 
1020.0	1.0	0.0	8.52437	7.25997	-2.84783	16.16113	28.91832	1.09557	0.91276	150.89889	165.67315	55.96325	0.3482	 	1.226680081E7	 	5.14522E-7	 	32141.20943	34.38955	 
1015.0	1.0	0.0	8.52677	7.25793	-2.87518	16.1434	28.82431	1.0949	0.91333	151.31614	165.94763	56.12499	0.34803	 	1.355709145E7	 	4.63753E-7	 	31969.52337	34.33721	 
1010.0	1.0	0.0	8.52917	7.25589	-2.90249	16.12563	28.73029	1.09422	0.9139	151.73258	166.22062	56.28647	0.34786	 	1.499476221E7	 	4.17662E-7	 	31798.09821	34.28503	 
1005.0	1.0	0.0	8.53157	7.25385	-2.92976	16.10782	28.63627	1.09353	0.91447	152.14823	166.49212	56.44769	0.34769	 	1.659795129E7	 	3.7585E-7	 	31626.93318	34.23301	 
1000.0	1.0	0.0	8.53396	7.25181	-2.95699	16.08996	28.54226	1.09284	0.91505	152.56308	166.76214	56.60866	0.34752	 	1.838718667E7	 	3.37949E-7	 	31456.02752	34.18113	 
995.0	1.0	0.0	8.53635	7.24978	-2.98418	16.07207	28.44824	1.09215	0.91563	152.97713	167.03069	56.76937	0.34736	 	2.038572308E7	 	3.03621E-7	 	31285.38051	34.1294	 
990.0	1.0	0.0	8.53874	7.24775	-3.01134	16.05414	28.35422	1.09145	0.91621	153.39039	167.29777	56.92983	0.34719	 	2.261992499E7	 	2.72553E-7	 	31114.99144	34.07781	 
985.0	1.0	0.0	8.54113	7.24573	-3.03845	16.03618	28.2602	1.09075	0.9168	153.80285	167.56338	57.09003	0.34702	 	2.511971247E7	 	2.44458E-7	 	30944.85962	34.02636	 
980.0	1.0	0.0	8.54352	7.2437	-3.06553	16.01817	28.16618	1.09004	0.9174	154.21452	167.82754	57.24998	0.34685	 	2.791907067E7	 	2.19073E-7	 	30774.98437	33.97505	 
975.0	1.0	0.0	8.5459	7.24168	-3.09256	16.00013	28.07216	1.08932	0.918	154.6254	168.09026	57.40967	0.34668	 	3.105663622E7	 	1.96155E-7	 	30605.36506	33.92386	 
970.0	1.0	0.0	8.54828	7.23967	-3.11955	15.98206	27.97813	1.08861	0.91861	155.03548	168.35152	57.56912	0.34652	 	3.457637832E7	 	1.75481E-7	 	30436.00103	33.87281	 
965.0	1.0	0.0	8.55066	7.23765	-3.1465	15.96395	27.88411	1.08788	0.91922	155.44477	168.61135	57.7283	0.34635	 	3.852837851E7	 	1.56848E-7	 	30266.89168	33.82187	 
960.0	1.0	0.0	8.55304	7.23564	-3.17341	15.94581	27.79009	1.08716	0.91983	155.85327	168.86975	57.88723	0.34618	 	4.296973927E7	 	1.40068E-7	 	30098.03641	33.77105	 
955.0	1.0	0.0	8.55541	7.23363	-3.20028	15.92764	27.69606	1.08642	0.92045	156.26098	169.12671	58.04591	0.34601	 	4.79656268E7	 	1.24971E-7	 	29929.43462	33.72036	 
950.0	1.0	0.0	8.55778	7.23163	-3.22711	15.90943	27.60204	1.08569	0.92108	156.6679	169.38226	58.20434	0.34584	 	5.359048652E7	 	1.11398E-7	 	29761.08575	33.66977	 
945.0	1.0	0.0	8.56015	7.22963	-3.25389	15.89119	27.50801	1.08494	0.92171	157.07404	169.6364	58.36251	0.34568	 	5.992944595E7	 	9.92081E-8	 	29592.98925	33.6193	 
940.0	1.0	0.0	8.56252	7.22763	-3.28063	15.87292	27.41398	1.0842	0.92234	157.47938	169.88912	58.52043	0.34551	 	6.707995056E7	 	8.82691E-8	 	29425.14457	33.56894	 
935.0	1.0	0.0	8.56488	7.22563	-3.30733	15.85461	27.31995	1.08345	0.92298	157.88393	170.14044	58.6781	0.34534	 	7.515365011E7	 	7.84617E-8	 	29257.5512	33.51867	 
930.0	1.0	0.0	8.56724	7.22364	-3.33398	15.83628	27.22592	1.08269	0.92363	158.2877	170.39036	58.83551	0.34517	 	8.427861342E7	 	6.96769E-8	 	29090.20862	33.46852	 
925.0	1.0	0.0	8.5696	7.22165	-3.36059	15.81792	27.1319	1.08192	0.92428	158.69068	170.63889	58.99267	0.345	 	9.460188206E7	 	6.18156E-8	 	28923.11632	33.41846	 
920.0	1.0	0.0	8.57196	7.21967	-3.38716	15.79953	27.03787	1.08116	0.92494	159.09287	170.88603	59.14957	0.34484	 	1.062924686E8	 	5.47872E-8	 	28756.27384	33.3685	 
915.0	1.0	0.0	8.57431	7.21769	-3.41369	15.78111	26.94383	1.08038	0.9256	159.49428	171.13179	59.30623	0.34467	 	1.195448516E8	 	4.85095E-8	 	28589.68069	33.31863	 
910.0	1.0	0.0	8.57667	7.21571	-3.44016	15.76266	26.8498	1.0796	0.92626	159.8949	171.37616	59.46263	0.3445	 	1.345830371E8	 	4.29078E-8	 	28423.3364	33.26886	 
905.0	1.0	0.0	8.57901	7.21373	-3.4666	15.74418	26.75577	1.07882	0.92694	160.29473	171.61917	59.61878	0.34433	 	1.516653377E8	 	3.79141E-8	 	28257.24054	33.21917	 
900.0	1.0	0.0	8.58136	7.21176	-3.49299	15.72567	26.66174	1.07803	0.92762	160.69378	171.86081	59.77467	0.34416	 	1.710899533E8	 	3.34669E-8	 	28091.39267	33.16957	 
895.0	1.0	0.0	8.5837	7.20979	-3.51933	15.70714	26.56771	1.07724	0.9283	161.09205	172.10109	59.93031	0.34399	 	1.932015213E8	 	2.95104E-8	 	27925.79234	33.12007	 
890.0	1.0	0.0	8.58604	7.20783	-3.54563	15.68858	26.47367	1.07643	0.92899	161.48953	172.34001	60.0857	0.34383	 	2.183987832E8	 	2.59939E-8	 	27760.43915	33.07064	 
885.0	1.0	0.0	8.58838	7.20586	-3.57189	15.66999	26.37964	1.07563	0.92969	161.88623	172.57757	60.24084	0.34366	 	2.471436259E8	 	2.28719E-8	 	27595.33268	33.02129	 
880.0	1.0	0.0	8.59072	7.2039	-3.5981	15.65138	26.28561	1.07482	0.93039	162.28214	172.81379	60.39572	0.34349	 	2.799716895E8	 	2.01029E-8	 	27430.47254	32.97203	 
875.0	1.0	0.0	8.59305	7.20195	-3.62426	15.63274	26.19157	1.074	0.9311	162.67727	173.04867	60.55035	0.34332	 	3.175049112E8	 	1.76496E-8	 	27265.85833	32.92284	 
870.0	1.0	0.0	8.59538	7.2	-3.65038	15.61407	26.09754	1.07317	0.93182	163.07162	173.2822	60.70473	0.34315	 	3.604662243E8	 	1.54784E-8	 	27101.48968	32.87373	 
865.0	1.0	0.0	8.5977	7.19805	-3.67645	15.59538	26.0035	1.07234	0.93254	163.46519	173.51441	60.85886	0.34299	 	4.096970328E8	 	1.35589E-8	 	26937.3662	32.8247	 
860.0	1.0	0.0	8.60003	7.1961	-3.70248	15.57666	25.90947	1.07151	0.93326	163.85797	173.74528	61.01273	0.34282	 	4.661778048E8	 	1.18638E-8	 	26773.48754	32.77573	 
855.0	1.0	0.0	8.60235	7.19416	-3.72846	15.55792	25.81543	1.07066	0.934	164.24997	173.97484	61.16635	0.34265	 	5.310524555E8	 	1.03685E-8	 	26609.85333	32.72684	 
850.0	1.0	0.0	8.60467	7.19223	-3.75439	15.53915	25.72139	1.06982	0.93474	164.64119	174.20307	61.31972	0.34248	 	6.056573194E8	 	9.05102E-9	 	26446.46322	32.67802	 
845.0	1.0	0.0	8.60698	7.19029	-3.78029	15.52034	25.62735	1.06896	0.93549	165.03159	174.42992	61.47282	0.34231	 	6.915535863E8	 	7.89152E-9	 	26286.59763	31.97312	 
840.0	1.0	0.0	8.6093	7.18836	-3.80613	15.5015	25.53331	1.0681	0.93624	165.4212	174.65546	61.62567	0.34215	 	7.905733057E8	 	6.87224E-9	 	26123.7091	32.57771	 
835.0	1.0	0.0	8.6116	7.18643	-3.83193	15.48264	25.43927	1.06724	0.937	165.81005	174.87971	61.77827	0.34198	 	9.048631423E8	 	5.97726E-9	 	25961.06239	32.52934	 
830.0	1.0	0.0	8.61391	7.18451	-3.85768	15.46376	25.34522	1.06636	0.93777	166.19811	175.10265	61.93062	0.34181	 	1.036943817E9	 	5.19237E-9	 	25798.65726	32.48103	 
