T (C)	Fraction solid (wt)-TOTAL	Fraction liquid (wt)-LIQUID	Density (g/(cm)^3)-TOTAL	Molar volume (cm^3)-TOTAL	Volume change (%)-  	Average expansion coeff. (10e-6 1/K)-  	Thermal conductivity (W/(m*K))-TOTAL	Electrical resistivity (10e-6 Ohm*m)-TOTAL	Electrical conductivity (10e6 1/(Ohm*m))-TOTAL	Young's modulus (GPa)-TOTAL	Bulk modulus (GPa)-TOTAL	Shear modulus(GPa)-TOTAL	Poisson's ratio-TOTAL	Liquid viscosity (mPa s)-  	Total viscosity (mPa s)-  	Liquid diffusivity (10e-9 (m^2)/s)-  	Total diffusivity (10e-9 (m^2)/s)-  	Surface Tension (mN/m)-  	Enthalpy (J/mole)-TOTAL	Specific heat (J/(mole K))-TOTAL	Latent heat (J/mole)-TOTAL
1400.0	0.0	1.0	7.21583	7.71354	0.0	28.55573	29.5775	1.38592	0.72154	0.0	125.13948	0.0	0.5	6.82884	6.82884	1.19584	1.19584	1759.81908	59234.07	 	0.0
1395.0	0.0	1.0	7.21975	7.70936	-0.0542335	28.51245	29.5023	1.3853	0.72186	0.0	125.30335	0.0	0.5	6.90068	6.90068	1.17986	1.17986	1762.056	59027.536	41.3068	0.0
1390.0	0.0	1.0	7.22365	7.70519	-0.10831	28.46928	29.4271	1.38468	0.72219	0.0	125.46721	0.0	0.5	6.97371	6.97371	1.164	1.164	1764.30675	58821.478	41.2116	0.0
1385.0	0.0	1.0	7.22756	7.70103	-0.16222	28.42624	29.3519	1.38406	0.72251	0.0	125.63108	0.0	0.5	7.04796	7.04796	1.14828	1.14828	1766.57123	58615.894	41.1168	0.0
1380.0	0.0	1.0	7.23145	7.69688	-0.21598	28.38331	29.2767	1.38343	0.72284	0.0	125.79494	0.0	0.5	7.12347	7.12347	1.13268	1.13268	1768.84932	58410.781	41.0226	0.0
1375.0	0.0	1.0	7.23534	7.69275	-0.26958	28.34051	29.20151	1.38279	0.72317	0.0	125.95881	0.0	0.5	7.20024	7.20024	1.11721	1.11721	1771.1409	58206.137	40.9288	0.0
1370.0	0.0	1.0	7.23921	7.68863	-0.32301	28.29783	29.12631	1.38216	0.72351	0.0	126.12267	0.0	0.5	7.27832	7.27832	1.10188	1.10188	1773.44581	58001.96	40.8354	0.0
1365.0	0.0	1.0	7.24309	7.68452	-0.37629	28.25527	29.05111	1.38152	0.72384	0.0	126.28654	0.0	0.5	7.35773	7.35773	1.08667	1.08667	1775.7639	57798.247	40.7426	0.0
1364.33	0.0	1.0	7.24361	7.68396	-0.38345	28.24956	29.041	1.38143	0.72389	0.0	126.30858	0.0	0.5	7.36851	7.36851	1.08463	1.08463	1776.07667	57770.882	40.69327	0.0020
1360.0	0.15544	0.84456	7.27696	7.64866	-0.84119	27.06356	29.58981	1.35223	0.73952	0.0553659	125.47331	0.0187316	0.47788	7.43777	29.82155	1.07169	0.26729	1774.42606	55069.598	624.20919	2525.397
1355.0	0.29331	0.70669	7.30721	7.61702	-1.25134	26.01629	30.07851	1.32619	0.75404	0.71641	124.79439	0.24568	0.45801	7.51696	289.92197	1.05715	0.0274094	1772.83023	52638.687	486.1822	4753.518
1350.0	0.39895	0.60105	7.33105	7.59225	-1.57239	25.21165	30.45222	1.30589	0.76576	2.49354	124.35186	0.86425	0.44261	7.5957	1027.4471	1.04298	0.00771056	1771.52817	50741.032	379.531	6448.842
1345.0	0.48182	0.51818	7.35036	7.57235	-1.83045	24.57871	30.74173	1.2896	0.77543	5.37999	124.08458	1.88056	0.43042	7.67418	2309.60818	1.02914	0.00341954	1770.4842	49220.005	304.2054	7767.993
1340.0	0.54813	0.45187	7.36637	7.5559	-2.04375	24.06781	30.96694	1.27627	0.78353	9.12182	123.94915	3.21062	0.42057	7.7526	4105.19672	1.01558	0.00191791	1769.66705	47972.223	249.5564	8814.353
1335.0	0.60209	0.39791	7.37993	7.54201	-2.22383	23.64747	31.14192	1.26517	0.79041	13.42471	123.91508	4.75216	0.41249	7.83107	6352.86566	1.00229	0.0012355	1769.04903	46927.357	208.9732	9658.249
1330.0	0.64665	0.35335	7.39162	7.53008	-2.37842	23.2967	31.27688	1.25579	0.79631	18.03705	123.96073	6.41542	0.40576	7.90982	8993.21672	0.98922	8.70053E-4	1768.60601	46036.283	178.2148	10348.803
1325.0	0.68391	0.31609	7.40186	7.51969	-2.51314	23.00018	31.37975	1.24777	0.80143	22.76854	124.0701	8.13112	0.40009	7.98886	11979.10455	0.97638	6.51148E-4	1768.31714	45263.885	154.4796	10921.128
1320.0	0.71542	0.28458	7.41096	7.5105	-2.63232	22.74606	31.45638	1.24084	0.80591	27.4876	124.2303	9.85039	0.39525	8.0684	15279.07028	0.96373	5.08916E-4	1768.16447	44584.54	135.869	11400.846
1315.0	0.74233	0.25767	7.41914	7.50222	-2.73957	22.52447	31.51152	1.23478	0.80986	32.10852	124.43126	11.54076	0.39109	8.14847	18875.41592	0.95127	4.10659E-4	1768.13277	43979.206	121.0668	11806.996
1310.0	0.76551	0.23449	7.42659	7.49469	-2.83722	22.32895	31.54875	1.22944	0.81338	36.5753	124.6653	13.18053	0.38747	8.22914	22759.93911	0.93898	3.39498E-4	1768.20876	43433.498	109.1416	12153.961
1305.0	0.78564	0.21436	7.43343	7.48781	-2.92644	22.15648	31.57122	1.22468	0.81654	40.85822	124.92748	14.75764	0.38431	8.31052	26935.99958	0.92684	2.85958E-4	1768.38028	42936.387	99.4222	12452.769
1304.79	0.78643	0.21357	7.43371	7.48754	-2.92988	22.15016	31.57183	1.22449	0.81667	41.03388	124.93966	14.82241	0.38418	8.31405	27119.43581	0.92632	2.83985E-4	1768.38907	42916.246	 	12464.435
1300.0	0.81995	0.18005	7.44359	7.47749	-3.06028	21.85224	31.65442	1.21759	0.82129	49.01423	125.26452	17.77386	0.37883	8.45979	34175.99784	0.90761	2.24665E-4	1768.56486	42195.524	148.1726	12995.765
1295.0	0.84671	0.15329	7.45208	7.46884	-3.17238	21.60939	31.70361	1.21184	0.82519	56.26774	125.61455	20.46832	0.37451	8.60874	41571.26725	0.88907	1.84112E-4	1768.82597	41578.89	123.3268	13414.969
1290.0	0.86757	0.13243	7.45927	7.4615	-3.26754	21.41452	31.72563	1.20714	0.82841	62.53789	125.97549	22.80572	0.3711	8.75515	49026.24206	0.87141	1.55618E-4	1769.16276	41058.873	104.0034	13737.989
1285.0	0.88422	0.11578	7.46555	7.45508	-3.35075	21.25342	31.72796	1.20319	0.83113	67.98678	126.3463	24.84269	0.36835	8.89982	56615.7414	0.8545	1.34326E-4	1769.57023	40607.285	90.3176	13993.011
1280.0	0.89779	0.10221	7.47115	7.44931	-3.42556	21.116	31.71557	1.19979	0.83348	72.75512	126.72511	26.62939	0.36607	9.04333	64414.98809	0.83825	1.17683E-4	1770.04317	40205.663	80.3244	14198.497
1275.0	0.90902	0.0909818	7.47626	7.44406	-3.49358	20.99771	31.69197	1.19682	0.83555	76.95732	127.11139	28.20694	0.36416	9.18622	72496.35817	0.82255	1.04228E-4	1770.57527	39841.5	72.8326	14366.951
1270.0	0.91847	0.081532	7.48098	7.4392	-3.55662	20.89338	31.6596	1.19418	0.8374	80.69182	127.50356	29.61118	0.36252	9.32892	80934.45788	0.80735	9.30596E-5	1771.16159	39506.071	67.0858	14507.095
1265.0	0.92651	0.07349	7.48541	7.43463	-3.61589	20.79953	31.62029	1.19179	0.83908	84.03909	127.90062	30.87157	0.36111	9.47186	89803.45928	0.79259	8.35973E-5	1771.7975	39193.132	62.5878	14625.174
1260.0	0.93343	0.0665703	7.4896	7.4303	-3.67201	20.71443	31.57539	1.1896	0.84062	87.06084	128.30187	32.01074	0.35987	9.61544	99174.3399	0.77822	7.54522E-5	1772.47828	38898.109	59.0046	14725.759
1255.0	0.93944	0.0605567	7.4936	7.42617	-3.72559	20.63632	31.52591	1.18758	0.84205	89.80792	128.7065	33.04746	0.35877	9.7599	109118.9663	0.7642	6.83522E-5	1773.2	38617.582	56.1054	14812.267
1250.0	0.94471	0.0552859	7.49745	7.42219	-3.7771	20.56389	31.47263	1.1857	0.84338	92.32146	129.11395	33.99693	0.35779	9.90551	119711.4539	0.7505	6.21003E-5	1773.95916	38348.951	53.7262	14887.296
1245.0	0.94937	0.0506331	7.50116	7.41835	-3.82689	20.49608	31.41617	1.18393	0.84464	94.63581	129.5236	34.87188	0.35691	10.05257	131029.3823	0.7371	5.655E-5	1774.75264	38090.206	51.749	14952.856
1240.0	0.9535	0.0464964	7.50477	7.41463	-3.87516	20.43241	31.35701	1.18226	0.84584	96.77826	129.93513	35.68245	0.3561	10.2014	143153.7656	0.72395	5.159E-5	1775.57736	37839.767	50.0878	15010.523
1235.0	0.9572	0.0427967	7.50828	7.411	-3.92226	20.37181	31.29554	1.18067	0.84698	98.77259	130.34805	36.4375	0.35537	10.3521	156170.9982	0.71105	4.71336E-5	1776.43124	37596.382	48.677	15061.548
1230.0	0.96053	0.0394687	7.51171	7.40745	-3.9683	20.31397	31.23208	1.17915	0.84807	100.63697	130.76202	37.1438	0.35469	10.50491	170171.8481	0.69839	4.31123E-5	1777.31184	37359.041	47.4682	15106.94
1225.0	0.96354	0.0364607	7.51508	7.40397	-4.01338	20.25864	31.16692	1.17768	0.84913	102.3892	131.17683	37.80799	0.35407	10.66004	185258.5958	0.68594	3.94697E-5	1778.21698	37126.923	46.4236	15147.517
1220.0	0.96627	0.0337273	7.51838	7.40056	-4.0576	20.20555	31.10024	1.17627	0.85015	104.04118	131.59229	38.43452	0.35349	10.8177	201535.7063	0.67368	3.61608E-5	1779.14469	36899.355	45.5136	15183.951
1215.0	0.96877	0.0312345	7.52163	7.3972	-4.10116	20.15405	31.03223	1.1749	0.85114	105.60632	132.00798	39.02842	0.35294	10.97811	219122.0868	0.66162	3.31472E-5	1780.0938	36675.778	44.7154	15216.798
1213.1	0.96965	0.0303472	7.52286	7.39593	-4.11754	20.13499	31.00598	1.17439	0.85151	106.17867	132.16651	39.24566	0.35274	11.03993	226186.3996	0.65707	3.20709E-5	1780.45997	36591.623	 	15228.393
1210.0	0.97241	0.027591	7.52529	7.39345	-4.14969	20.08649	30.96373	1.17354	0.85212	107.25641	132.43814	39.65893	0.35224	11.17446	239451.7926	0.64781	3.02311E-5	1781.10255	36428.703	49.415	15273.545
1205.0	0.97641	0.0235907	7.52908	7.38957	-4.2001	20.01243	30.89425	1.17221	0.85309	108.87743	132.8739	40.28083	0.35148	11.39411	262146.5228	0.63318	2.75208E-5	1782.14963	36172.989	51.1428	15339.333
1200.0	0.97989	0.020108	7.53274	7.38582	-4.24866	19.94359	30.82337	1.17094	0.85402	110.39056	133.30632	40.86119	0.3508	11.61672	286512.2658	0.61894	2.50952E-5	1783.20513	35926.15	49.3678	15396.645
1195.0	0.98294	0.017057	7.53628	7.38219	-4.29577	19.8788	30.75129	1.1697	0.85492	111.87022	133.73583	41.42781	0.35018	11.84246	312737.4872	0.60508	2.29127E-5	1784.26861	35686.787	47.8726	15446.878
1190.0	0.98563	0.0143686	7.53972	7.37865	-4.34161	19.81752	30.6782	1.16849	0.85581	113.40491	134.16304	42.01367	0.34962	12.07137	341026.3106	0.59159	2.09405E-5	1785.33827	35453.774	46.6026	15491.156
1189.85	0.98571	0.0142933	7.53983	7.37854	-4.34297	19.8157	30.67599	1.16845	0.85583	113.45264	134.17583	42.03186	0.3496	12.07829	341908.6774	0.59119	2.08843E-5	1785.37052	35446.897	 	15492.373
1185.0	0.99077	0.00923372	7.54405	7.37398	-4.40216	19.70845	30.62349	1.16658	0.85721	116.9975	134.68535	43.37385	0.34871	12.29945	375674.2319	0.57863	1.89443E-5	1787.57933	35151.979	60.359	15604.61
1180.0	0.99465	0.00534849	7.54795	7.36975	-4.45693	19.61707	30.56115	1.16495	0.85841	120.70115	135.18678	44.77095	0.34799	12.53047	411951.6379	0.56602	1.72167E-5	1789.89258	34878.466	54.7026	15690.175
1175.0	0.99764	0.00236348	7.55153	7.36587	-4.50733	19.53907	30.49374	1.16351	0.85947	123.24704	135.67076	45.73538	0.34739	12.76494	450329.4577	0.55371	1.56953E-5	1792.24562	34625.686	50.556	15755.395
1170.0	1.0	0.0	7.55489	7.36222	-4.55464	19.47045	30.42182	1.16223	0.86041	125.06645	136.14203	46.42779	0.34689	 	491313.6589	 	1.43364E-5	 	34387.358	47.6656	15806.552
1165.0	1.0	0.0	7.55757	7.3596	-4.5886	19.44483	30.33868	1.16138	0.86105	125.56767	136.55398	46.61904	0.34674	 	531335.7147	 	1.32106E-5	 	34198.54235	37.76313	 
1160.0	1.0	0.0	7.56025	7.35699	-4.62241	19.41949	30.25554	1.16052	0.86168	126.06811	136.96457	46.81004	0.34659	 	574936.5271	 	1.21663E-5	 	34018.88086	35.9323	 
1155.0	1.0	0.0	7.56293	7.35439	-4.65614	19.39421	30.1724	1.15966	0.86232	126.56774	137.37352	47.00077	0.34644	 	622458.8287	 	1.11982E-5	 	33839.5361	35.86895	 
1150.07	1.0	0.0	7.56556	7.35183	-4.68932	19.36933	30.0904	1.1588	0.86296	127.05969	137.77524	47.18862	0.3463	 	673539.5269	 	1.03132E-5	 	33662.97834	 	 
1150.0	1.0	0.0	7.5656	7.35179	-4.68978	19.36899	30.08926	1.15879	0.86297	127.06661	137.78089	47.19126	0.34629	 	674288.2002	 	1.03013E-5	 	33660.4907	35.80908	 
1145.0	1.0	0.0	7.56826	7.3492	-4.72335	19.34379	30.0061	1.15792	0.86362	127.56928	138.19059	47.38325	0.34614	 	731062.631	 	9.46791E-6	 	33480.31931	36.03428	 
1140.0	1.0	0.0	7.57092	7.34662	-4.75684	19.31863	29.92293	1.15704	0.86427	128.07103	138.59856	47.57493	0.34599	 	793063.9711	 	8.69695E-6	 	33300.50103	35.96366	 
1135.0	1.0	0.0	7.57358	7.34404	-4.79024	19.29351	29.83977	1.15616	0.86493	128.57185	139.0048	47.76631	0.34584	 	860814.0464	 	7.98411E-6	 	33121.03453	35.8933	 
1130.0	1.0	0.0	7.57623	7.34147	-4.82357	19.26844	29.7566	1.15528	0.86559	129.07176	139.40934	47.95739	0.34569	 	934890.5611	 	7.32538E-6	 	32941.91787	35.82333	 
1125.0	1.0	0.0	7.57888	7.33891	-4.85682	19.24341	29.67344	1.15439	0.86626	129.57076	139.81217	48.14817	0.34554	 	1015933.374	 	6.717E-6	 	32763.14958	35.75366	 
1120.0	1.0	0.0	7.58152	7.33635	-4.88998	19.21844	29.59027	1.15349	0.86693	130.06883	140.21331	48.33865	0.34539	 	1104652.107	 	6.15544E-6	 	32584.72826	35.68426	 
1115.0	1.0	0.0	7.58416	7.3338	-4.92306	19.19352	29.5071	1.15259	0.86761	130.566	140.61276	48.52883	0.34524	 	1201833.967	 	5.6374E-6	 	32406.65253	35.61515	 
1110.0	1.0	0.0	7.58679	7.33125	-4.95606	19.16865	29.42394	1.15169	0.86829	131.06225	141.01052	48.71871	0.34509	 	1308353.041	 	5.15978E-6	 	32228.921	35.54631	 
1105.0	1.0	0.0	7.58942	7.32872	-4.98897	19.14384	29.34077	1.15078	0.86898	131.55759	141.40661	48.90829	0.34494	 	1425180.449	 	4.71969E-6	 	32051.5323	35.47774	 
1100.0	1.0	0.0	7.59205	7.32618	-5.02181	19.11908	29.2576	1.14986	0.86967	132.05202	141.80103	49.09757	0.34479	 	1553395.936	 	4.31442E-6	 	31874.48504	35.40945	 
1095.0	1.0	0.0	7.59466	7.32366	-5.05456	19.09437	29.17443	1.14894	0.87037	132.54555	142.19379	49.28655	0.34464	 	1694200.63	 	3.94145E-6	 	31697.77787	35.34143	 
1090.0	1.0	0.0	7.59728	7.32114	-5.08723	19.06971	29.09126	1.14801	0.87107	133.03816	142.58488	49.47524	0.34449	 	1848932.007	 	3.5984E-6	 	31521.40942	35.27369	 
1085.0	1.0	0.0	7.59989	7.31862	-5.11982	19.04511	29.00808	1.14708	0.87178	133.52987	142.97433	49.66362	0.34434	 	2019080.042	 	3.28308E-6	 	31345.37833	35.20622	 
1080.0	1.0	0.0	7.60249	7.31612	-5.15232	19.02057	28.92491	1.14615	0.87249	134.02067	143.36213	49.85171	0.34419	 	2206306.102	 	2.99341E-6	 	31169.68323	35.13902	 
1075.0	1.0	0.0	7.60509	7.31361	-5.18475	18.99608	28.84173	1.1452	0.87321	134.51058	143.74829	50.0395	0.34404	 	2412463.64	 	2.7275E-6	 	30994.32278	35.07209	 
1070.0	1.0	0.0	7.60769	7.31112	-5.21709	18.97165	28.75855	1.14426	0.87393	134.99958	144.13281	50.227	0.34389	 	2639622.528	 	2.48353E-6	 	30819.29563	35.00543	 
1065.0	1.0	0.0	7.61028	7.30863	-5.24935	18.94728	28.67538	1.1433	0.87466	135.48768	144.51571	50.4142	0.34375	 	2890095.165	 	2.25985E-6	 	30644.60044	34.93904	 
1060.0	1.0	0.0	7.61286	7.30615	-5.28153	18.92297	28.59219	1.14235	0.87539	135.97488	144.897	50.60111	0.3436	 	3166467.701	 	2.0549E-6	 	30470.23588	34.87291	 
1055.0	1.0	0.0	7.61544	7.30367	-5.31363	18.89872	28.50901	1.14138	0.87613	136.46118	145.27666	50.78771	0.34345	 	3471634.164	 	1.86724E-6	 	30296.20061	34.80705	 
1050.0	1.0	0.0	7.61802	7.3012	-5.34565	18.87452	28.42583	1.14041	0.87688	136.94659	145.65472	50.97403	0.3433	 	3808835.629	 	1.69552E-6	 	30122.49331	34.74146	 
1045.0	1.0	0.0	7.62059	7.29874	-5.37758	18.85039	28.34264	1.13944	0.87763	137.4311	146.03118	51.16005	0.34315	 	4181704.563	 	1.5385E-6	 	29949.11265	34.67613	 
1040.0	1.0	0.0	7.62316	7.29628	-5.40943	18.82632	28.25945	1.13846	0.87838	137.91472	146.40604	51.34577	0.343	 	4594315.504	 	1.39502E-6	 	29776.05734	34.61106	 
1035.04	1.0	0.0	7.6257	7.29385	-5.44093	18.80251	28.17699	1.13748	0.87914	138.39327	146.77608	51.5296	0.34285	 	5047076.384	 	1.26508E-6	 	29604.82291	 	 
1035.0	1.0	0.0	7.62573	7.29382	-5.44135	18.80177	28.17584	1.13749	0.87913	138.3991	146.78018	51.53186	0.34285	 	5051683.122	 	1.26389E-6	 	29602.54402	34.70266	 
1030.0	1.0	0.0	7.62959	7.29013	-5.48919	18.71794	28.04631	1.13837	0.87845	139.06739	147.25076	51.79049	0.3426	 	5614279.731	 	1.13289E-6	 	29341.67728	52.17335	 
1025.0	1.0	0.0	7.6334	7.2865	-5.53631	18.63596	27.92	1.13914	0.87786	139.72665	147.71481	52.04568	0.34235	 	6243599.242	 	1.01479E-6	 	29084.65109	51.40524	 
1020.0	1.0	0.0	7.63715	7.28291	-5.58275	18.55573	27.79671	1.13978	0.87736	140.37737	148.17267	52.29759	0.3421	 	6948066.046	 	9.08389E-7	 	28831.28083	50.67405	 
1015.0	1.0	0.0	7.64086	7.27938	-5.62852	18.47717	27.67612	1.14032	0.87695	141.01998	148.62462	52.54642	0.34186	 	7737234.248	 	8.12582E-7	 	28581.39333	49.9775	 
1010.0	1.0	0.0	7.64451	7.2759	-5.67366	18.4002	27.55809	1.14076	0.87661	141.65492	149.07095	52.7923	0.34162	 	8621950.651	 	7.26371E-7	 	28334.8261	49.31345	 
1005.0	1.0	0.0	7.64812	7.27247	-5.71821	18.32472	27.44244	1.1411	0.87634	142.28257	149.51192	53.03541	0.34139	 	9614538.867	 	6.48844E-7	 	28091.42658	48.6799	 
1000.0	1.0	0.0	7.65169	7.26907	-5.76218	18.25066	27.32899	1.14136	0.87615	142.90329	149.94775	53.27587	0.34116	 	1.072901411E7	 	5.79171E-7	 	27851.05152	48.07501	 
995.0	1.0	0.0	7.65522	7.26572	-5.8056	18.17796	27.21762	1.14153	0.87602	143.51742	150.37866	53.51383	0.34094	 	1.198132798E7	 	5.16598E-7	 	27613.56635	47.49703	 
990.0	1.0	0.0	7.65871	7.26242	-5.84849	18.10654	27.10818	1.14162	0.87595	144.12528	150.80488	53.74939	0.34072	 	1.33896535E7	 	4.60439E-7	 	27378.84467	46.94434	 
985.0	1.0	0.0	7.66216	7.25915	-5.89087	18.03634	27.00055	1.14163	0.87594	144.72717	151.22658	53.98268	0.3405	 	1.497471173E7	 	4.10073E-7	 	27146.76766	46.4154	 
980.0	1.0	0.0	7.66557	7.25592	-5.93277	17.9673	26.89462	1.14157	0.87598	145.32335	151.64395	54.2138	0.34028	 	1.676015178E7	 	3.64932E-7	 	26917.22353	45.90883	 
975.0	1.0	0.0	7.66895	7.25272	-5.9742	17.89936	26.79029	1.14145	0.87608	145.9141	152.05715	54.44285	0.34007	 	1.877298725E7	 	3.24504E-7	 	26690.10714	45.42328	 
970.0	1.0	0.0	7.67229	7.24956	-6.01519	17.83248	26.68747	1.14125	0.87623	146.49964	152.46634	54.66993	0.33986	 	2.104410828E7	 	2.88323E-7	 	26465.31945	44.95754	 
965.0	1.0	0.0	7.6756	7.24643	-6.05574	17.7666	26.58607	1.141	0.87643	147.08021	152.87166	54.89512	0.33965	 	2.360886523E7	 	2.55968E-7	 	26242.76714	44.51046	 
960.0	1.0	0.0	7.67888	7.24333	-6.09587	17.70167	26.48601	1.14068	0.87667	147.65602	153.27324	55.1185	0.33944	 	2.650775671E7	 	2.27054E-7	 	26022.36217	44.08099	 
955.0	1.0	0.0	7.68213	7.24027	-6.13561	17.63765	26.3872	1.14031	0.87695	148.22725	153.67121	55.34016	0.33924	 	2.978722139E7	 	2.01237E-7	 	25804.02152	43.66813	 
950.0	1.0	0.0	7.68536	7.23723	-6.17495	17.5745	26.28959	1.13989	0.87728	148.79411	154.0657	55.56016	0.33904	 	3.350056405E7	 	1.78203E-7	 	25587.66668	43.27097	 
945.0	1.0	0.0	7.68855	7.23423	-6.21392	17.51218	26.19311	1.13941	0.87765	149.35676	154.4568	55.77856	0.33884	 	3.770902654E7	 	1.57667E-7	 	25373.22354	42.88863	 
940.0	1.0	0.0	7.69172	7.23125	-6.25253	17.45065	26.09769	1.13888	0.87805	149.91536	154.84463	55.99544	0.33864	 	4.248304969E7	 	1.39375E-7	 	25160.62191	42.52033	 
935.0	1.0	0.0	7.69486	7.2283	-6.29079	17.38988	26.00327	1.13831	0.8785	150.47008	155.22928	56.21086	0.33844	 	4.790372889E7	 	1.23094E-7	 	24949.79535	42.16531	 
930.0	1.0	0.0	7.69797	7.22537	-6.32871	17.32983	25.90981	1.13768	0.87898	151.02104	155.61084	56.42486	0.33825	 	5.406452601E7	 	1.08616E-7	 	24740.6809	41.82289	 
925.0	1.0	0.0	7.70106	7.22247	-6.36631	17.27047	25.81725	1.13702	0.87949	151.56839	155.9894	56.63749	0.33806	 	6.107326788E7	 	9.57518E-8	 	24533.21886	41.49241	 
920.0	1.0	0.0	7.70413	7.2196	-6.40359	17.21176	25.72555	1.13631	0.88004	152.11224	156.36503	56.84882	0.33787	 	6.905448979E7	 	8.43315E-8	 	24327.35253	41.17327	 
915.0	1.0	0.0	7.70717	7.21675	-6.44055	17.15369	25.63466	1.13556	0.88062	152.65273	156.73781	57.05888	0.33768	 	7.815217312E7	 	7.42022E-8	 	24123.02809	40.86489	 
914.48	1.0	0.0	7.70749	7.21645	-6.44436	17.1477	25.62533	1.13548	0.88068	152.70828	156.77608	57.08048	0.33766	 	7.916017398E7	 	7.32256E-8	 	24102.04474	 	 
910.0	1.0	0.0	7.71022	7.21389	-6.47757	17.09476	25.54424	1.13478	0.88123	153.19668	157.11202	57.27035	0.33749	 	8.855636804E7	 	6.52089E-8	 	23918.12514	40.98059	 
905.0	1.0	0.0	7.71327	7.21104	-6.51451	17.03546	25.45449	1.13397	0.88186	153.73872	157.48391	57.48115	0.3373	 	1.004494408E8	 	5.72453E-8	 	23714.1722	40.79059	 
900.0	1.0	0.0	7.71633	7.20818	-6.55162	16.97481	25.36529	1.13313	0.88251	154.28031	157.85398	57.69186	0.33711	 	1.140666017E8	 	5.01975E-8	 	23510.61036	40.71237	 
895.0	1.0	0.0	7.71949	7.20523	-6.58988	16.90851	25.27618	1.13228	0.88317	154.8294	158.22567	57.90566	0.33691	 	1.297225036E8	 	4.39511E-8	 	23304.58004	41.20606	 
892.31	1.0	0.0	7.72134	7.20351	-6.61219	16.86515	25.22765	1.13184	0.88352	155.13795	158.43067	58.02598	0.3368	 	1.391756543E8	 	4.08714E-8	 	23189.11304	 	 
890.0	1.0	0.0	7.72269	7.20224	-6.62861	16.83942	25.18747	1.1314	0.88386	155.38133	158.59724	58.12068	0.33671	 	1.477213438E8	 	3.84308E-8	 	23097.90324	41.33536	 
