T (C)	Fraction solid (wt)-TOTAL	Fraction liquid (wt)-LIQUID	Density (g/(cm)^3)-TOTAL	Molar volume (cm^3)-TOTAL	Volume change (%)-  	Average expansion coeff. (10e-6 1/K)-  	Thermal conductivity (W/(m*K))-TOTAL	Electrical resistivity (10e-6 Ohm*m)-TOTAL	Electrical conductivity (10e6 1/(Ohm*m))-TOTAL	Young's modulus (GPa)-TOTAL	Bulk modulus (GPa)-TOTAL	Shear modulus(GPa)-TOTAL	Poisson's ratio-TOTAL	Liquid viscosity (mPa s)-  	Total viscosity (mPa s)-  	Liquid diffusivity (10e-9 (m^2)/s)-  	Total diffusivity (10e-9 (m^2)/s)-  	Surface Tension (mN/m)-  	Enthalpy (J/mole)-TOTAL	Specific heat (J/(mole K))-TOTAL	Latent heat (J/mole)-TOTAL
1400.0	0.0465001	0.9535	7.13958	7.68871	0.0	30.27205	31.15266	1.31585	0.75997	3.67746E-4	124.70731	1.23061E-4	0.49416	6.6321	7.12029	1.23132	1.1469	1794.36132	48523.099	 	0.0
1395.0	0.48102	0.51898	7.26707	7.55383	-1.7543	25.58116	32.39579	1.26157	0.79266	4.56604	122.31887	1.58738	0.43823	6.67854	832.99664	1.2191	0.00977414	1793.29638	41660.319	1372.556	6656.624
1390.0	0.69945	0.30055	7.3345	7.48456	-2.65522	23.20009	33.05347	1.23277	0.81118	21.31869	121.27768	7.56439	0.40915	6.72464	3863.23339	1.20712	0.0021012	1791.96474	38174.27	697.2098	9937.008
1385.0	0.81868	0.18132	7.37331	7.44538	-3.16482	21.8804	33.4023	1.21622	0.82222	41.10275	120.89734	14.75443	0.39289	6.77064	7613.29717	1.19531	0.00106301	1790.41041	36220.823	390.6894	11685.28
1380.0	0.88783	0.11217	7.39733	7.42144	-3.4762	21.0995	33.58025	1.20613	0.8291	57.89774	120.86485	20.92781	0.38327	6.81682	11093.11459	1.18363	7.27353E-4	1788.67879	35024.774	239.2098	12676.636
1375.0	0.92994	0.0700598	7.41323	7.40575	-3.68024	20.61091	33.66126	1.19959	0.83362	70.62952	121.02439	25.64084	0.37729	6.8634	14093.38077	1.17205	5.70779E-4	1786.81449	34229.78	158.9988	13267.419
1370.0	0.95663	0.0433675	7.42446	7.39478	-3.82293	20.28976	33.68532	1.1951	0.83675	79.9395	121.29456	29.10298	0.37339	6.91057	16683.05208	1.16051	4.80716E-4	1784.85959	33659.644	114.0272	13633.823
1365.0	0.97415	0.025853	7.43288	7.38662	-3.92897	20.06873	33.67472	1.19183	0.83904	86.72415	121.63041	31.63385	0.37075	6.95846	18983.62731	1.14902	4.21174E-4	1782.85263	33221.787	87.5714	13868.423
1360.0	0.98598	0.0140168	7.43954	7.38022	-4.01223	19.91005	33.64229	1.18934	0.8408	91.72663	122.00634	33.50404	0.36889	7.00724	21102.76656	1.13754	3.77723E-4	1780.82772	32865.005	71.3564	14022.42
1355.0	0.99419	0.00581222	7.44507	7.37495	-4.08086	19.79141	33.59569	1.18734	0.84222	95.48695	122.40707	34.91219	0.36753	7.05701	23123.26324	1.12606	3.43662E-4	1778.81456	32559.708	61.0594	14125.4
1350.0	1.0	0.0	7.44984	7.37041	-4.13983	19.69923	33.53966	1.18568	0.8434	98.37929	122.82328	35.99674	0.3665	 	25106.32772	 	3.15546E-4	 	32288.134	54.3148	14195.124
1345.0	1.0	0.0	7.4524	7.36789	-4.17257	19.68083	33.45721	1.18494	0.84393	98.88492	123.26512	36.18718	0.3663	 	26670.50248	 	2.96124E-4	 	32079.28369	41.77006	 
1340.0	1.0	0.0	7.45495	7.36537	-4.20541	19.66204	33.37473	1.18419	0.84446	99.38952	123.70391	36.37731	0.36609	 	28342.68408	 	2.77792E-4	 	31887.39753	38.37723	 
1335.0	1.0	0.0	7.4575	7.36285	-4.23819	19.64325	33.29225	1.18345	0.84499	99.89331	124.14048	36.5672	0.36589	 	30131.09943	 	2.60494E-4	 	31695.8031	38.31889	 
1330.0	1.0	0.0	7.46005	7.36033	-4.27093	19.62446	33.20977	1.1827	0.84552	100.39629	124.57485	36.75685	0.36568	 	32044.59171	 	2.44178E-4	 	31504.5	38.26062	 
1325.0	1.0	0.0	7.4626	7.35782	-4.30361	19.60568	33.12729	1.18195	0.84606	100.89845	125.00704	36.94625	0.36548	 	34092.73347	 	2.28793E-4	 	31313.48783	38.20243	 
1320.0	1.0	0.0	7.46515	7.35531	-4.33623	19.5869	33.04481	1.18119	0.8466	101.39981	125.43705	37.13541	0.36527	 	36285.89139	 	2.14292E-4	 	31122.76618	38.14433	 
1315.0	1.0	0.0	7.46769	7.35281	-4.36881	19.56813	32.96233	1.18043	0.84715	101.90036	125.86489	37.32432	0.36507	 	38635.29716	 	2.00629E-4	 	30932.33466	38.0863	 
1310.0	1.0	0.0	7.47023	7.35031	-4.40134	19.54936	32.87986	1.17966	0.8477	102.40009	126.29058	37.51299	0.36486	 	41153.1251	 	1.87761E-4	 	30742.19287	38.02836	 
1305.0	1.0	0.0	7.47277	7.34781	-4.43381	19.5306	32.79738	1.1789	0.84825	102.89902	126.71413	37.70141	0.36466	 	43852.57727	 	1.75647E-4	 	30552.3404	37.97049	 
1300.0	1.0	0.0	7.47531	7.34532	-4.46623	19.51185	32.7149	1.17812	0.84881	103.39713	127.13555	37.88959	0.36445	 	46747.9768	 	1.64246E-4	 	30362.77686	37.91271	 
1295.0	1.0	0.0	7.47784	7.34283	-4.4986	19.4931	32.63242	1.17735	0.84937	103.89443	127.55484	38.07753	0.36425	 	49854.87023	 	1.53521E-4	 	30173.50184	37.855	 
1290.0	1.0	0.0	7.48037	7.34034	-4.53092	19.47436	32.54994	1.17657	0.84993	104.39093	127.97203	38.26522	0.36404	 	53190.1399	 	1.43435E-4	 	29984.51495	37.79738	 
1285.0	1.0	0.0	7.4829	7.33786	-4.56318	19.45562	32.46746	1.17578	0.8505	104.88661	128.38711	38.45266	0.36384	 	56772.12734	 	1.33956E-4	 	29795.81577	37.73984	 
1280.0	1.0	0.0	7.48543	7.33538	-4.59539	19.43689	32.38498	1.17499	0.85107	105.38148	128.80011	38.63986	0.36364	 	60620.76885	 	1.25049E-4	 	29607.40392	37.68237	 
1275.0	1.0	0.0	7.48795	7.33291	-4.62755	19.41817	32.30249	1.1742	0.85164	105.87554	129.21103	38.82681	0.36343	 	64757.74453	 	1.16683E-4	 	29419.27898	37.62499	 
1270.0	1.0	0.0	7.49047	7.33044	-4.65966	19.39946	32.22001	1.17341	0.85222	106.36879	129.61989	39.01352	0.36323	 	69206.64224	 	1.0883E-4	 	29231.44056	37.56768	 
1265.0	1.0	0.0	7.49299	7.32798	-4.69172	19.38075	32.13753	1.17261	0.8528	106.86122	130.02669	39.19998	0.36303	 	73993.13797	 	1.0146E-4	 	29043.88824	37.51046	 
1260.0	1.0	0.0	7.49551	7.32552	-4.72372	19.36205	32.05504	1.1718	0.85339	107.35285	130.43144	39.38619	0.36282	 	79145.19446	 	9.45468E-5	 	28856.62164	37.45332	 
1255.0	1.0	0.0	7.49802	7.32306	-4.75567	19.34336	31.97256	1.17099	0.85398	107.84367	130.83416	39.57216	0.36262	 	84693.28003	 	8.80651E-5	 	28669.64035	37.39626	 
1250.0	1.0	0.0	7.50053	7.32061	-4.78757	19.32468	31.89007	1.17018	0.85457	108.33367	131.23486	39.75788	0.36242	 	90670.6097	 	8.19904E-5	 	28482.94396	37.33928	 
1245.0	1.0	0.0	7.50304	7.31816	-4.81941	19.30601	31.80758	1.16937	0.85516	108.82287	131.63354	39.94336	0.36221	 	97113.41123	 	7.62996E-5	 	28296.53207	37.28238	 
1240.0	1.0	0.0	7.50555	7.31572	-4.8512	19.28735	31.72509	1.16854	0.85577	109.31125	132.03021	40.12858	0.36201	 	104061.2185	 	7.09708E-5	 	28110.40428	37.22556	 
1235.0	1.0	0.0	7.50805	7.31328	-4.88294	19.26869	31.6426	1.16772	0.85637	109.79882	132.4249	40.31356	0.36181	 	111557.1955	 	6.59832E-5	 	27924.56019	37.16882	 
1230.0	1.0	0.0	7.51056	7.31084	-4.91463	19.25005	31.5601	1.16689	0.85698	110.28559	132.81759	40.4983	0.36161	 	119648.4943	 	6.13171E-5	 	27738.99938	37.11216	 
1225.0	1.0	0.0	7.51306	7.30841	-4.94626	19.23142	31.47761	1.16606	0.85759	110.77154	133.20832	40.68278	0.36141	 	128386.6506	 	5.69537E-5	 	27553.72146	37.05558	 
1220.0	1.0	0.0	7.51555	7.30598	-4.97784	19.2128	31.39511	1.16522	0.85821	111.25668	133.59708	40.86702	0.3612	 	137828.0211	 	5.28753E-5	 	27368.72603	36.99909	 
1215.0	1.0	0.0	7.51805	7.30356	-5.00937	19.19419	31.31261	1.16438	0.85883	111.74101	133.98388	41.05101	0.361	 	148034.2677	 	4.90649E-5	 	27184.01267	36.94267	 
1210.0	1.0	0.0	7.52054	7.30114	-5.04084	19.17559	31.2301	1.16353	0.85945	112.22453	134.36874	41.23475	0.3608	 	159072.8931	 	4.55067E-5	 	26999.58098	36.88634	 
1205.0	1.0	0.0	7.52303	7.29872	-5.07226	19.157	31.1476	1.16268	0.86008	112.70723	134.75167	41.41825	0.3606	 	171017.835	 	4.21856E-5	 	26815.43055	36.83009	 
1200.0	1.0	0.0	7.52552	7.29631	-5.10363	19.13842	31.06509	1.16182	0.86072	113.18913	135.13267	41.60149	0.3604	 	183950.1237	 	3.90871E-5	 	26631.56099	36.77391	 
1195.0	1.0	0.0	7.528	7.2939	-5.13494	19.11986	30.98258	1.16096	0.86135	113.67022	135.51176	41.78449	0.3602	 	197958.6123	 	3.61978E-5	 	26447.97188	36.71782	 
1190.0	1.0	0.0	7.53048	7.2915	-5.1662	19.10131	30.90006	1.1601	0.86199	114.15049	135.88894	41.96724	0.36	 	213140.7867	 	3.3505E-5	 	26264.66281	36.66181	 
1185.0	1.0	0.0	7.53296	7.2891	-5.1974	19.08278	30.81755	1.15923	0.86264	114.62996	136.26422	42.14974	0.35979	 	229603.6652	 	3.09963E-5	 	26081.63339	36.60588	 
1180.0	1.0	0.0	7.53544	7.2867	-5.22856	19.06425	30.73502	1.15836	0.86329	115.10861	136.63762	42.33199	0.35959	 	247464.7977	 	2.86605E-5	 	25898.8832	36.55004	 
1175.0	1.0	0.0	7.53791	7.28431	-5.25965	19.04574	30.6525	1.15748	0.86395	115.58645	137.00914	42.51399	0.35939	 	266853.3775	 	2.64867E-5	 	25716.41183	36.49427	 
1170.0	1.0	0.0	7.54038	7.28192	-5.2907	19.02725	30.56997	1.1566	0.8646	116.06349	137.37879	42.69574	0.35919	 	287911.4771	 	2.44647E-5	 	25534.21888	36.43859	 
1165.0	1.0	0.0	7.54285	7.27954	-5.32169	19.00877	30.48744	1.15571	0.86527	116.53971	137.74658	42.87724	0.35899	 	310795.4251	 	2.25848E-5	 	25352.30393	36.38299	 
1160.0	1.0	0.0	7.54531	7.27716	-5.35263	18.99031	30.4049	1.15482	0.86594	117.01512	138.11252	43.05849	0.35879	 	335677.3391	 	2.0838E-5	 	25170.66658	36.32747	 
1155.0	1.0	0.0	7.54778	7.27479	-5.38351	18.97186	30.32236	1.15392	0.86661	117.48972	138.47661	43.2395	0.35859	 	362746.8345	 	1.92157E-5	 	24989.30642	36.27203	 
1150.0	1.0	0.0	7.55024	7.27242	-5.41434	18.95343	30.23982	1.15302	0.86729	117.96351	138.83888	43.42025	0.35839	 	392212.931	 	1.77099E-5	 	24808.22304	36.21668	 
1145.0	1.0	0.0	7.55269	7.27005	-5.44511	18.93501	30.15727	1.15212	0.86797	118.43648	139.19932	43.60075	0.35819	 	424306.1802	 	1.63128E-5	 	24627.41602	36.1614	 
1140.0	1.0	0.0	7.55515	7.26769	-5.47583	18.91662	30.07472	1.15121	0.86865	118.90865	139.55795	43.781	0.35799	 	459281.0412	 	1.50175E-5	 	24446.88495	36.10621	 
1135.0	1.0	0.0	7.5576	7.26533	-5.5065	18.89823	29.99216	1.15029	0.86935	119.38001	139.91477	43.961	0.35779	 	497418.5366	 	1.3817E-5	 	24266.62942	36.05111	 
1130.0	1.0	0.0	7.56005	7.26298	-5.53711	18.87987	29.9096	1.14937	0.87004	119.85055	140.2698	44.14075	0.3576	 	539029.2224	 	1.27051E-5	 	24086.64902	35.99608	 
1125.0	1.0	0.0	7.5625	7.26063	-5.56767	18.86153	29.82703	1.14844	0.87074	120.32029	140.62303	44.32025	0.3574	 	584456.5115	 	1.16758E-5	 	23906.94333	35.94114	 
1120.0	1.0	0.0	7.56494	7.25828	-5.59817	18.8432	29.74446	1.14751	0.87145	120.78921	140.97449	44.4995	0.3572	 	634080.396	 	1.07236E-5	 	23727.51193	35.88628	 
1115.0	1.0	0.0	7.56738	7.25594	-5.62862	18.8249	29.66188	1.14658	0.87216	121.25732	141.32418	44.6785	0.357	 	688321.6183	 	9.8431E-6	 	23548.35442	35.8315	 
1110.0	1.0	0.0	7.56982	7.25361	-5.65901	18.80661	29.57929	1.14564	0.87288	121.72463	141.6721	44.85725	0.3568	 	747646.3497	 	9.02942E-6	 	23369.47038	35.77681	 
1105.0	1.0	0.0	7.57225	7.25127	-5.68935	18.78835	29.4967	1.14469	0.8736	122.19112	142.01827	45.03574	0.3566	 	812571.44	 	8.27793E-6	 	23190.85938	35.7222	 
1100.0	1.0	0.0	7.57469	7.24894	-5.71964	18.77011	29.41411	1.14374	0.87432	122.6568	142.36269	45.21398	0.3564	 	883670.3135	 	7.58428E-6	 	23012.52101	35.66767	 
1095.0	1.0	0.0	7.57712	7.24662	-5.74987	18.75188	29.33151	1.14279	0.87505	123.12167	142.70537	45.39197	0.35621	 	961579.596	 	6.94441E-6	 	22834.45485	35.61323	 
1090.0	1.0	0.0	7.57954	7.2443	-5.78004	18.73369	29.2489	1.14183	0.87579	123.58573	143.04633	45.56971	0.35601	 	1047006.568	 	6.35449E-6	 	22656.66048	35.55887	 
1085.0	1.0	0.0	7.58197	7.24198	-5.81016	18.71551	29.16628	1.14086	0.87653	124.04897	143.38556	45.7472	0.35581	 	1140737.551	 	5.81097E-6	 	22479.13747	35.5046	 
1080.0	1.0	0.0	7.58439	7.23967	-5.84023	18.69735	29.08366	1.13989	0.87728	124.51141	143.72308	45.92443	0.35561	 	1243647.361	 	5.3105E-6	 	22301.88541	35.45041	 
1075.0	1.0	0.0	7.5868	7.23737	-5.87024	18.67922	29.00103	1.13891	0.87803	124.97304	144.0589	46.10141	0.35541	 	1356709.955	 	4.84996E-6	 	22124.90387	35.39631	 
1070.0	1.0	0.0	7.58922	7.23506	-5.90019	18.66112	28.91839	1.13793	0.87879	125.43385	144.39302	46.27814	0.35522	 	1481010.449	 	4.42642E-6	 	21948.19243	35.34229	 
1065.0	1.0	0.0	7.59163	7.23276	-5.93009	18.64304	28.83575	1.13695	0.87955	125.89386	144.72545	46.45462	0.35502	 	1617758.681	 	4.03718E-6	 	21771.75065	35.28836	 
1060.0	1.0	0.0	7.59404	7.23047	-5.95993	18.62498	28.7531	1.13595	0.88032	126.35305	145.0562	46.63084	0.35482	 	1768304.541	 	3.67967E-6	 	21595.57811	35.23451	 
1055.0	1.0	0.0	7.59645	7.22818	-5.98972	18.60696	28.67044	1.13496	0.88109	126.81143	145.38528	46.80681	0.35463	 	1934155.296	 	3.35153E-6	 	21419.67438	35.18075	 
1050.0	1.0	0.0	7.59885	7.22589	-6.01945	18.58895	28.58777	1.13395	0.88187	127.26901	145.71269	46.98252	0.35443	 	2116995.207	 	3.05053E-6	 	21244.03903	35.12707	 
1045.0	1.0	0.0	7.60125	7.22361	-6.04913	18.57098	28.5051	1.13294	0.88266	127.72577	146.03844	47.15798	0.35423	 	2318707.737	 	2.77463E-6	 	21068.67163	35.07348	 
1040.0	1.0	0.0	7.60365	7.22133	-6.07875	18.55304	28.42241	1.13193	0.88345	128.18172	146.36255	47.33319	0.35404	 	2541400.729	 	2.5219E-6	 	20893.57174	35.01998	 
1035.0	1.0	0.0	7.60604	7.21906	-6.10832	18.53512	28.33972	1.13091	0.88424	128.63686	146.68501	47.50814	0.35384	 	2787434.962	 	2.29055E-6	 	20718.73892	34.96656	 
1030.0	1.0	0.0	7.60843	7.21679	-6.13783	18.51723	28.25702	1.12988	0.88505	129.09118	147.00584	47.68284	0.35364	 	3059456.581	 	2.07892E-6	 	20544.17274	34.91324	 
1025.0	1.0	0.0	7.61082	7.21453	-6.16729	18.49937	28.17431	1.12885	0.88585	129.5447	147.32504	47.85729	0.35345	 	3360433.939	 	1.88546E-6	 	20369.87276	34.86	 
1020.0	1.0	0.0	7.61321	7.21227	-6.19669	18.48155	28.09159	1.12782	0.88667	129.99741	147.64262	48.03148	0.35325	 	3693699.499	 	1.70873E-6	 	20195.83853	34.80685	 
1015.0	1.0	0.0	7.61559	7.21001	-6.22603	18.46375	28.00886	1.12677	0.88749	130.44931	147.95859	48.20542	0.35306	 	4062997.532	 	1.54741E-6	 	20022.06961	34.75378	 
1010.0	1.0	0.0	7.61797	7.20776	-6.25532	18.44599	27.92612	1.12573	0.88832	130.90039	148.27296	48.3791	0.35286	 	4472538.453	 	1.40026E-6	 	19848.56555	34.70081	 
1005.0	1.0	0.0	7.62035	7.20551	-6.28455	18.42826	27.84337	1.12467	0.88915	131.35067	148.58572	48.55252	0.35267	 	4927060.777	 	1.26614E-6	 	19675.3259	34.64793	 
1000.0	1.0	0.0	7.62272	7.20327	-6.31372	18.41057	27.76061	1.12361	0.88999	131.80013	148.8969	48.7257	0.35247	 	5431901.824	 	1.14397E-6	 	19502.35021	34.59514	 
995.0	1.0	0.0	7.62509	7.20103	-6.34284	18.39291	27.67784	1.12255	0.89083	132.24878	149.2065	48.89861	0.35228	 	5993078.493	 	1.03278E-6	 	19329.63803	34.54244	 
990.0	1.0	0.0	7.62745	7.19879	-6.3719	18.37528	27.59505	1.12148	0.89168	132.69662	149.51452	49.07127	0.35208	 	6617379.597	 	9.31656E-7	 	19157.18889	34.48983	 
986.72	1.0	0.0	7.62901	7.19733	-6.39096	18.36373	27.54068	1.12077	0.89224	132.99028	149.71594	49.18452	0.35195	 	7065351.075	 	8.70317E-7	 	19044.08408	34.44631	 
985.0	1.0	0.0	7.63021	7.1962	-6.4057	18.33899	27.48757	1.1214	0.89174	133.22727	149.82185	49.27796	0.35179	 	7339588.008	 	8.36657E-7	 	18964.04555	46.62919	 
980.0	1.0	0.0	7.63369	7.19291	-6.44838	18.26744	27.33442	1.12321	0.89031	133.90781	150.12328	49.54646	0.35134	 	8205515.604	 	7.45391E-7	 	18732.04298	46.40051	 
975.0	1.0	0.0	7.63714	7.18966	-6.49068	18.19662	27.18353	1.12493	0.88894	134.5741	150.41441	49.8096	0.35089	 	9181893.084	 	6.6347E-7	 	18501.70129	46.06834	 
970.0	1.0	0.0	7.64057	7.18644	-6.53262	18.12649	27.03481	1.12659	0.88763	135.22653	150.69551	50.06752	0.35044	 	1.028386513E7	 	5.90003E-7	 	18272.96866	45.74653	 
965.0	1.0	0.0	7.64397	7.18324	-6.5742	18.05703	26.88817	1.12818	0.88638	135.86545	150.96686	50.32034	0.35001	 	1.152879716E7	 	5.24175E-7	 	18045.79524	45.43468	 
960.0	1.0	0.0	7.64735	7.18007	-6.61545	17.98819	26.74353	1.1297	0.88519	136.49119	151.2287	50.5682	0.34958	 	1.293662166E7	 	4.65245E-7	 	17820.133	45.13245	 
955.0	1.0	0.0	7.6507	7.17692	-6.65636	17.91996	26.60081	1.13116	0.88405	137.10407	151.48125	50.81121	0.34915	 	1.45302419E7	 	4.12539E-7	 	17595.93575	44.83945	 
950.0	1.0	0.0	7.65403	7.1738	-6.69695	17.8523	26.45994	1.13255	0.88296	137.70439	151.72473	51.04949	0.34873	 	1.633600294E7	 	3.65444E-7	 	17373.15906	44.55534	 
945.0	1.0	0.0	7.65733	7.17071	-6.73722	17.78518	26.32083	1.13388	0.88193	138.29243	151.95932	51.28312	0.34832	 	1.83842414E7	 	3.23401E-7	 	17151.76019	44.27977	 
940.0	1.0	0.0	7.66062	7.16763	-6.77719	17.71858	26.18343	1.13515	0.88094	138.86843	152.18521	51.51222	0.34792	 	2.070992843E7	 	2.85906E-7	 	16931.69807	44.01242	 
935.0	1.0	0.0	7.66388	7.16458	-6.81686	17.65246	26.04767	1.13637	0.88	139.43267	152.40258	51.73688	0.34752	 	2.335342209E7	 	2.52497E-7	 	16712.93326	43.75296	 
930.0	1.0	0.0	7.66712	7.16155	-6.85625	17.5868	25.91349	1.13752	0.8791	139.98536	152.61159	51.95718	0.34712	 	2.636134896E7	 	2.22761E-7	 	16495.4279	43.50107	 
925.0	1.0	0.0	7.67034	7.15855	-6.89536	17.52158	25.78082	1.13862	0.87825	140.52673	152.81239	52.1732	0.34673	 	2.978763843E7	 	1.96319E-7	 	16279.14567	43.25645	 
920.0	1.0	0.0	7.67354	7.15556	-6.93419	17.45677	25.64962	1.13967	0.87744	141.05699	153.00515	52.38503	0.34635	 	3.369473703E7	 	1.7283E-7	 	16064.05174	43.01879	 
915.0	1.0	0.0	7.67672	7.1526	-6.97276	17.39234	25.51984	1.14067	0.87668	141.57636	153.19	52.59274	0.34597	 	3.815503709E7	 	1.51987E-7	 	15850.1128	42.78779	 
910.0	1.0	0.0	7.67988	7.14965	-7.01108	17.32828	25.39141	1.14161	0.87595	142.08502	153.36709	52.7964	0.34559	 	4.325255709E7	 	1.3351E-7	 	15637.29692	42.56318	 
905.0	1.0	0.0	7.68303	7.14672	-7.04914	17.26455	25.26431	1.14251	0.87527	142.58316	153.53657	52.99609	0.34522	 	4.908492397E7	 	1.17149E-7	 	15425.57362	42.34466	 
900.0	1.0	0.0	7.68616	7.14382	-7.08696	17.20115	25.13847	1.14335	0.87462	143.07098	153.69856	53.19187	0.34486	 	5.576571073E7	 	1.02677E-7	 	15214.91377	42.13197	 
895.0	1.0	0.0	7.68927	7.14093	-7.12454	17.13804	25.01387	1.14415	0.87401	143.54863	153.85322	53.3838	0.3445	 	6.342719849E7	 	8.98897E-8	 	15005.28957	41.92484	 
890.0	1.0	0.0	7.69236	7.13805	-7.16188	17.07522	24.89047	1.1449	0.87344	144.01631	154.00067	53.57196	0.34414	 	7.222364532E7	 	7.86037E-8	 	14796.67453	41.72301	 
885.0	1.0	0.0	7.69544	7.1352	-7.199	17.01265	24.76823	1.14561	0.8729	144.47417	154.14105	53.7564	0.34379	 	8.23351554E7	 	6.86541E-8	 	14589.0434	41.52623	 
880.0	1.0	0.0	7.6985	7.13236	-7.2359	16.95032	24.64711	1.14627	0.8724	144.92239	154.27451	53.93719	0.34344	 	9.397226698E7	 	5.98925E-8	 	14382.37219	41.33424	 
875.0	1.0	0.0	7.70154	7.12954	-7.27258	16.88821	24.52709	1.14688	0.87193	145.36112	154.40119	54.11438	0.34309	 	1.073814111E8	 	5.21863E-8	 	14176.63784	41.14687	 
870.0	1.0	0.0	7.70457	7.12674	-7.30905	16.82631	24.40813	1.14745	0.8715	145.79054	154.52121	54.28803	0.34275	 	1.228513782E8	 	4.54161E-8	 	13971.81893	40.96378	 
865.0	1.0	0.0	7.70759	7.12395	-7.34532	16.7646	24.29021	1.14798	0.8711	146.21079	154.63472	54.45821	0.34241	 	1.407210403E8	 	3.94755E-8	 	13767.89487	40.78481	 
860.0	1.0	0.0	7.71059	7.12118	-7.38138	16.70306	24.1733	1.14846	0.87073	146.62203	154.74186	54.62497	0.34208	 	1.613885442E8	 	3.4269E-8	 	13564.84614	40.60975	 
855.0	1.0	0.0	7.71358	7.11842	-7.41724	16.64167	24.05738	1.14891	0.87039	147.02442	154.84278	54.78836	0.34175	 	1.853222878E8	 	2.97116E-8	 	13362.65424	40.43838	 
850.0	1.0	0.0	7.71655	7.11568	-7.45291	16.58042	23.94242	1.14931	0.87009	147.41811	154.93761	54.94844	0.34142	 	2.130740394E8	 	2.57273E-8	 	13161.30163	40.27052	 
845.0	1.0	0.0	7.71883	7.11358	-7.48024	16.55653	23.86723	1.14779	0.87124	147.8224	155.1983	55.10603	0.34125	 	2.421499967E8	 	2.25373E-8	 	12999.55927	32.34847	 
840.0	1.0	0.0	7.7211	7.11148	-7.50752	16.53261	23.79202	1.14627	0.87239	148.22599	155.4578	55.26339	0.34109	 	2.755100624E8	 	1.97198E-8	 	12834.7604	32.95977	 
835.0	1.0	0.0	7.72338	7.10939	-7.53473	16.50868	23.7168	1.14474	0.87356	148.62888	155.71611	55.42053	0.34092	 	3.138313232E8	 	1.72341E-8	 	12670.20766	32.91055	 
830.0	1.0	0.0	7.72565	7.1073	-7.56189	16.48474	23.64156	1.14321	0.87473	149.03107	155.97324	55.57744	0.34075	 	3.579050396E8	 	1.50437E-8	 	12505.90035	32.86146	 
825.0	1.0	0.0	7.72791	7.10522	-7.58898	16.46078	23.56631	1.14166	0.87592	149.43257	156.22919	55.73413	0.34058	 	4.086570969E8	 	1.31156E-8	 	12341.83775	32.81252	 
