T (C)	Fraction solid (wt)-TOTAL	Fraction liquid (wt)-LIQUID	Density (g/(cm)^3)-TOTAL	Molar volume (cm^3)-TOTAL	Volume change (%)-  	Average expansion coeff. (10e-6 1/K)-  	Thermal conductivity (W/(m*K))-TOTAL	Electrical resistivity (10e-6 Ohm*m)-TOTAL	Electrical conductivity (10e6 1/(Ohm*m))-TOTAL	Young's modulus (GPa)-TOTAL	Bulk modulus (GPa)-TOTAL	Shear modulus(GPa)-TOTAL	Poisson's ratio-TOTAL	Liquid viscosity (mPa s)-  	Total viscosity (mPa s)-  	Liquid diffusivity (10e-9 (m^2)/s)-  	Total diffusivity (10e-9 (m^2)/s)-  	Surface Tension (mN/m)-  	Enthalpy (J/mole)-TOTAL	Specific heat (J/(mole K))-TOTAL	Latent heat (J/mole)-TOTAL
1400.0	0.0	1.0	6.81842	8.00506	0.0	35.43615	29.77129	1.3769	0.72627	0.0	118.49523	0.0	0.5	6.49967	6.49967	1.25641	1.25641	1720.57686	40560.24	 	0.0
1395.0	0.0	1.0	6.82238	8.00041	-0.0581164	35.4034	29.69731	1.37621	0.72663	0.0	118.63687	0.0	0.5	6.56876	6.56876	1.23948	1.23948	1722.61311	40360.084	40.0312	0.0
1390.0	0.0	1.0	6.82634	7.99577	-0.11607	35.37088	29.62334	1.37551	0.727	0.0	118.77852	0.0	0.5	6.63902	6.63902	1.22268	1.22268	1724.65297	40160.369	39.943	0.0
1385.0	0.0	1.0	6.83029	7.99114	-0.17386	35.33858	29.54937	1.37481	0.72737	0.0	118.92017	0.0	0.5	6.71045	6.71045	1.20603	1.20603	1726.6963	39961.093	39.8552	0.0
1380.0	0.0	1.0	6.83424	7.98653	-0.23148	35.3065	29.4754	1.3741	0.72775	0.0	119.06181	0.0	0.5	6.78309	6.78309	1.18952	1.18952	1728.74287	39762.252	39.7682	0.0
1375.0	0.0	1.0	6.83818	7.98193	-0.28894	35.27464	29.40143	1.37339	0.72812	0.0	119.20346	0.0	0.5	6.85697	6.85697	1.17314	1.17314	1730.79247	39563.844	39.6816	0.0
1370.0	0.0	1.0	6.84211	7.97735	-0.34624	35.24302	29.32746	1.37268	0.7285	0.0	119.34511	0.0	0.5	6.93211	6.93211	1.15691	1.15691	1732.84486	39365.867	39.5954	0.0
1365.0	0.0	1.0	6.84603	7.97277	-0.40337	35.21163	29.25349	1.37196	0.72888	0.0	119.48675	0.0	0.5	7.00853	7.00853	1.14081	1.14081	1734.89983	39168.316	39.5102	0.0
1360.0	0.0	1.0	6.84995	7.96821	-0.46034	35.18047	29.17951	1.37124	0.72927	0.0	119.6284	0.0	0.5	7.08628	7.08628	1.12485	1.12485	1736.95716	38971.19	39.4252	0.0
1355.0	0.0	1.0	6.85386	7.96366	-0.51715	35.14954	29.10554	1.37052	0.72965	0.0	119.77005	0.0	0.5	7.16537	7.16537	1.10903	1.10903	1739.01662	38774.486	39.3408	0.0
1350.0	0.0	1.0	6.85777	7.95913	-0.57379	35.11886	29.03157	1.36979	0.73004	0.0	119.91169	0.0	0.5	7.24585	7.24585	1.09334	1.09334	1741.07799	38578.202	39.2568	0.0
1345.0	0.0	1.0	6.86167	7.95461	-0.63027	35.08842	28.9576	1.36906	0.73043	0.0	120.05334	0.0	0.5	7.32773	7.32773	1.07779	1.07779	1743.14106	38382.334	39.1736	0.0
1342.04	0.0	1.0	6.86397	7.95194	-0.6636	35.07052	28.91384	1.36862	0.73066	0.0	120.13714	0.0	0.5	7.37685	7.37685	1.06866	1.06866	1744.36243	38266.649	39.10761	0.0
1340.0	1.2E-4	0.99988	6.86573	7.94987	-0.6895	35.04974	28.88157	1.36842	0.73077	9.66926E-14	120.22332	3.22316E-14	0.49996	7.41321	7.41321	1.06207	1.06207	1745.57015	38178.752	43.04709	8.13
1335.0	4.1E-4	0.99959	6.87006	7.94494	-0.75109	35.0039	28.80271	1.36792	0.73104	1.34395E-11	120.43597	4.48017E-12	0.49989	7.5034	7.5034	1.04606	1.04606	1747.44296	37963.45471	43.05946	27.899
1330.0	7.0E-4	0.9993	6.87436	7.93999	-0.81294	34.95693	28.72381	1.36741	0.73131	1.12914E-10	120.6471	3.76426E-11	0.49982	7.5952	7.5952	1.0302	1.0302	1749.30877	37746.50026	43.39089	47.471
1325.0	9.9E-4	0.99901	6.87871	7.93488	-0.8767	34.90399	28.64519	1.36688	0.73159	4.44993E-10	120.85613	1.48357E-10	0.49973	7.68864	7.68864	1.01451	1.01451	1751.17049	37530.21336	43.25738	66.84
1320.0	0.12119	0.87881	6.92052	7.88695	-1.47549	33.27217	28.88871	1.35112	0.74013	0.0160084	121.49914	0.00539182	0.48451	7.81137	12.98827	0.99544	0.59868	1752.81875	35580.77519	389.88763	1819.822
1315.0	0.33554	0.66446	6.99238	7.80585	-2.48852	30.40086	29.41572	1.32275	0.756	1.03875	122.57818	0.3565	0.45686	7.96917	245.54374	0.97267	0.0315682	1754.21482	32297.67191	656.62066	4906.931
1310.0	0.47611	0.52389	7.04094	7.75197	-3.16169	28.51767	29.76191	1.30325	0.76731	4.4404	123.37877	1.54358	0.43834	8.124	1008.71944	0.95113	0.00766017	1755.62479	30103.94469	438.74544	6905.124
1305.0	0.57376	0.42624	7.07567	7.71376	-3.63896	27.2045	29.99511	1.28903	0.77578	9.70593	124.02526	3.40497	0.42526	8.27645	2226.04711	0.93066	0.0034602	1757.0499	28542.31375	312.32619	8271.672
1300.0	0.64476	0.35524	7.10176	7.68528	-3.9948	26.24489	30.15384	1.27818	0.78236	15.88481	124.583	5.6106	0.41561	8.42748	3738.19198	0.91109	0.00205398	1758.48685	27369.93719	234.47531	9249.416
1295.0	0.69833	0.30167	7.12209	7.66316	-4.27105	25.51716	30.26061	1.26963	0.78763	22.29849	125.08563	7.91722	0.40823	8.5776	5432.16639	0.8923	0.00140897	1759.92968	26449.77519	184.0324	9975.393
1290.0	0.73998	0.26002	7.13849	7.64536	-4.49341	24.94645	30.33003	1.26268	0.79197	28.56523	125.55305	10.18432	0.40241	8.72769	7244.13862	0.87415	0.00105318	1761.37973	25700.26595	149.90185	10531.162
1285.0	0.77318	0.22682	7.15208	7.63064	-4.67732	24.48781	30.3721	1.2569	0.79561	34.50345	125.99719	12.34282	0.39771	8.87818	9145.25315	0.85659	8.31573E-4	1762.83196	25070.57262	125.93867	10967.556
1280.0	0.80018	0.19982	7.1636	7.61816	-4.83318	24.11089	30.39331	1.25199	0.79873	40.03889	126.425	14.36282	0.39384	9.02968	11123.84016	0.83951	6.81468E-4	1764.2855	24527.7034	108.57384	11317.562
1275.0	0.82256	0.17744	7.17357	7.60735	-4.9682	23.79464	30.39856	1.24775	0.80145	45.16104	126.8406	16.23821	0.39058	9.18245	13181.46995	0.82289	5.73239E-4	1765.7405	24049.48745	95.64319	11603.351
1270.0	0.8451	0.1549	7.18358	7.59648	-5.10406	23.47328	30.39865	1.24371	0.80404	50.81625	127.27823	18.31522	0.38727	9.3349	15590.46907	0.80684	4.83098E-4	1767.04841	23561.03793	97.6899	11899.804
1265.0	0.8654	0.1346	7.19284	7.58641	-5.22979	23.18053	30.38989	1.24004	0.80643	56.39563	127.71382	20.37049	0.38425	9.4869	18211.04426	0.79134	4.1224E-4	1768.2795	23102.12904	91.78178	12167.145
1260.0	0.882	0.118	7.20086	7.57768	-5.33893	22.93676	30.36932	1.23685	0.80851	61.35125	128.13398	22.20082	0.38173	9.63965	20891.59522	0.77627	3.58179E-4	1769.5052	22695.98494	81.22882	12382.147
1255.0	0.89581	0.10419	7.20795	7.56993	-5.43575	22.72925	30.33962	1.23402	0.81036	65.7809	128.54299	23.84059	0.3796	9.79376	23657.4084	0.76156	3.15272E-4	1770.72591	22329.16081	73.36483	12558.251
1250.0	0.90747	0.0925254	7.21433	7.56296	-5.52281	22.55051	30.30273	1.23148	0.81203	69.76373	128.94339	25.31785	0.37776	9.94927	26532.12366	0.7472	2.80193E-4	1771.93422	21992.39784	67.35259	12704.713
1245.0	0.91746	0.0825413	7.22015	7.55657	-5.60257	22.39313	30.2601	1.22917	0.81356	73.36864	129.33709	26.65729	0.37615	10.10685	29539.58128	0.73314	2.5084E-4	1773.13823	21679.12419	62.65473	12828.101
1240.0	0.9261	0.073903	7.22551	7.55068	-5.67615	22.25392	30.21277	1.22704	0.81497	76.65158	129.72548	27.87899	0.37472	10.26647	32703.34855	0.71936	2.25827E-4	1774.32591	21384.55305	58.91423	12933.201
1235.0	0.93364	0.0663584	7.23051	7.54518	-5.74491	22.12878	30.16153	1.22506	0.81629	79.65845	130.10929	28.99956	0.37344	10.42845	36046.35463	0.70585	2.04207E-4	1775.50321	21105.11763	55.88708	13023.576
1230.0	0.94029	0.0597141	7.23521	7.54	-5.80956	22.01561	30.10701	1.22321	0.81752	82.42665	130.48925	30.03252	0.37229	10.59307	39592.25993	0.69258	1.85301E-4	1776.66455	20838.10415	53.4027	13101.934
1225.0	0.94618	0.0538214	7.23966	7.5351	-5.87083	21.91226	30.04974	1.22146	0.81869	84.98817	130.86555	30.98951	0.37124	10.76015	43365.37851	0.67955	1.68616E-4	1777.81191	20581.4297	51.33489	13170.36
1220.0	0.95144	0.0485595	7.2439	7.53042	-5.92929	21.81703	29.9901	1.21981	0.8198	87.36954	131.23885	31.88022	0.37028	10.93019	47391.55742	0.66675	1.53776E-4	1778.94444	20333.44552	49.59684	13230.497
1215.0	0.95617	0.0438348	7.24795	7.52593	-5.98535	21.72873	29.92841	1.21823	0.82086	89.59294	131.60931	32.71273	0.36939	11.10323	51697.73901	0.65416	1.40495E-4	1780.06163	20092.84682	48.11974	13283.648
1210.0	0.96043	0.0395692	7.25185	7.52161	-6.03927	21.64656	29.86493	1.21672	0.82188	91.67731	131.97707	33.49397	0.36856	11.27941	56312.48749	0.64178	1.28549E-4	1781.15997	19858.58281	46.8528	13330.861
1205.0	0.9643	0.0357025	7.25562	7.51744	-6.09142	21.56945	29.79991	1.21526	0.82287	93.63768	132.34235	34.22945	0.36779	11.45878	61266.03837	0.6296	1.17757E-4	1782.24367	19629.79768	45.75703	13372.987
1200.0	0.96782	0.0321819	7.25927	7.5134	-6.14193	21.497	29.7335	1.21386	0.82382	95.48881	132.70533	34.92458	0.36707	11.64141	66592.02693	0.61763	1.07972E-4	1783.30517	19405.78967	44.8016	13410.727
1195.0	0.97112	0.0288808	7.26283	7.50941	-6.19173	21.42622	29.66676	1.21246	0.82477	97.28179	133.06993	35.59841	0.36638	11.83434	72351.87654	0.6055	9.90392E-5	1784.35602	19184.55652	44.24663	13446.055
1190.0	0.97473	0.0252664	7.26649	7.50514	-6.24512	21.34311	29.60552	1.21083	0.82588	99.27585	133.45678	36.34809	0.36563	12.07538	78763.63264	0.59139	9.06671E-5	1785.45647	18957.23255	45.46479	13487.518
1185.0	0.97797	0.0220304	7.26999	7.50104	-6.29625	21.26669	29.54467	1.20917	0.82701	101.13004	133.83746	37.04587	0.36493	12.32028	85655.27319	0.57765	8.30873E-5	1786.53074	18735.26023	44.39446	13524.031
1180.0	0.98088	0.019123	7.27335	7.49709	-6.34558	21.19558	29.4827	1.20756	0.82812	102.8625	134.21267	37.69845	0.36428	12.56911	93075.75545	0.56428	7.6201E-5	1787.58663	18517.92087	43.46787	13556.309
1175.0	0.9835	0.0164982	7.2766	7.49328	-6.39329	21.12922	29.41907	1.20601	0.82918	104.48653	134.5829	38.31075	0.36367	12.82202	101076.1266	0.55124	6.99281E-5	1788.62053	18304.61981	42.66021	13584.944
1170.0	0.98588	0.0141209	7.27975	7.48957	-6.43958	21.06704	29.35389	1.20451	0.83021	106.01454	134.94863	38.88736	0.3631	13.07884	109712.4614	0.53855	6.42011E-5	1789.63065	18094.86141	41.95168	13610.429
1165.0	0.98804	0.0119599	7.28281	7.48596	-6.48464	21.00843	29.28718	1.20308	0.8312	107.45802	135.31023	39.43254	0.36256	13.33981	119046.674	0.52619	5.89622E-5	1790.61794	17888.22612	41.32706	13633.178
1160.0	0.99001	0.00998852	7.28711	7.48162	-6.53889	20.91838	29.13565	1.20513	0.82979	109.12564	135.70456	40.06969	0.3617	13.60502	129984.6389	0.51414	5.38129E-5	1791.5813	17620.74122	53.49698	13653.54
1155.0	0.99181	0.00818644	7.29267	7.47636	-6.60462	20.78869	28.89467	1.21094	0.82581	111.04984	136.12738	40.81222	0.3605	13.87452	142946.8449	0.50239	4.87625E-5	1792.5203	17285.58343	67.03156	13671.81
1150.0	0.99347	0.00653216	7.2992	7.46961	-6.68886	20.59499	28.6078	1.2188	0.82048	113.14767	136.52764	41.62847	0.35902	14.1483	157975.0677	0.49095	4.39692E-5	1793.43631	16895.95219	77.92625	13688.241
1145.0	0.99499	0.00501176	7.30481	7.46356	-6.7645	20.42892	28.3606	1.2251	0.81626	115.03567	136.91612	42.36246	0.35775	14.42668	174117.8571	0.47978	3.97526E-5	1794.33006	16540.10256	71.16993	13703.049
1140.0	0.99639	0.0036091	7.30951	7.45832	-6.82997	20.2962	28.14533	1.23012	0.81293	116.71122	137.29475	43.01249	0.35671	14.70952	191357.6612	0.4689	3.60437E-5	1795.19754	16221.262	63.76811	13716.42
1135.0	0.99769	0.00231342	7.31398	7.45313	-6.89484	20.16435	27.93815	1.23486	0.80981	118.3142	137.66098	43.63525	0.35572	14.99676	210272.2603	0.45829	3.26854E-5	1796.04021	15908.16654	62.61909	13728.515
1130.0	0.99889	0.0011129	7.31822	7.44798	-6.95909	20.03344	27.7368	1.23941	0.80684	119.85031	138.01574	44.23284	0.35477	15.28862	231033.7688	0.44794	2.96425E-5	1796.85317	15600.51588	61.53013	13739.473
1125.0	1.0	0.0	7.32226	7.44289	-7.02267	19.90367	27.54421	1.24363	0.8041	121.32373	138.35975	44.80677	0.35385	 	253831.1327	 	2.68841E-5	 	15298.03031	60.49711	13749.416
1120.0	1.0	0.0	7.32644	7.43865	-7.0757	19.80951	27.34475	1.24822	0.80114	122.21184	138.65605	45.15996	0.3531	 	278003.9935	 	2.44587E-5	 	15029.43432	53.7192	 
1115.0	1.0	0.0	7.33057	7.43446	-7.12799	19.71709	27.1511	1.25261	0.79833	123.0748	138.94235	45.50347	0.35237	 	304693.0759	 	2.22362E-5	 	14754.07583	55.0717	 
1110.0	1.0	0.0	7.33464	7.43033	-7.17956	19.62636	26.96295	1.25681	0.79567	123.91377	139.2193	45.83775	0.35166	 	334181.9578	 	2.0201E-5	 	14482.27335	54.3605	 
1105.0	1.0	0.0	7.33866	7.42626	-7.23045	19.53723	26.78004	1.26081	0.79314	124.72987	139.4875	46.1632	0.35097	 	366788.5254	 	1.83387E-5	 	14213.89602	53.67547	 
1100.0	1.0	0.0	7.34264	7.42224	-7.28066	19.44964	26.60212	1.26464	0.79074	125.52413	139.74749	46.48021	0.3503	 	402869.4188	 	1.66357E-5	 	13948.81746	53.01571	 
1095.0	1.0	0.0	7.34656	7.41827	-7.33023	19.36353	26.42893	1.26829	0.78846	126.29753	139.99974	46.78915	0.34965	 	442824.9978	 	1.50795E-5	 	13686.91596	52.3803	 
1090.0	1.0	0.0	7.35045	7.41435	-7.37918	19.27883	26.26026	1.27178	0.7863	127.05098	140.2447	47.09035	0.34901	 	487105.1654	 	1.36586E-5	 	13428.07448	51.7683	 
1085.0	1.0	0.0	7.35429	7.41048	-7.42753	19.1955	26.09586	1.27509	0.78426	127.78535	140.48278	47.38416	0.3484	 	536215.8181	 	1.23622E-5	 	13172.18039	51.17882	 
1080.0	1.0	0.0	7.35808	7.40666	-7.4753	19.11346	25.93555	1.27825	0.78232	128.50146	140.71433	47.67087	0.3478	 	590726.3081	 	1.11801E-5	 	12919.12533	50.61101	 
1075.0	1.0	0.0	7.36184	7.40288	-7.52252	19.03267	25.77911	1.28126	0.78048	129.2001	140.93971	47.95078	0.34722	 	651277.9515	 	1.01032E-5	 	12668.80505	50.06406	 
1070.0	1.0	0.0	7.36556	7.39914	-7.5692	18.95307	25.62636	1.28411	0.77875	129.88201	141.15925	48.22417	0.34665	 	718593.6781	 	9.12279E-6	 	12421.11972	49.53706	 
1065.0	1.0	0.0	7.36924	7.39545	-7.61536	18.87461	25.47712	1.28683	0.7771	130.54789	141.37323	48.49132	0.3461	 	793489.1191	 	8.23096E-6	 	12175.9731	49.02933	 
1060.0	1.0	0.0	7.37288	7.39179	-7.66102	18.79725	25.33122	1.2894	0.77555	131.19842	141.58195	48.75247	0.34556	 	876885.3113	 	7.42032E-6	 	11933.27321	48.53998	 
1055.0	1.0	0.0	7.37649	7.38818	-7.7062	18.72092	25.18851	1.29185	0.77409	131.83423	141.78567	49.00787	0.34503	 	969823.1632	 	6.68407E-6	 	11692.93142	48.06836	 
1050.0	1.0	0.0	7.38007	7.3846	-7.75091	18.6456	25.04882	1.29416	0.7727	132.45594	141.98464	49.25776	0.34452	 	1073480.001	 	6.01592E-6	 	11454.86322	47.61364	 
1045.0	1.0	0.0	7.38361	7.38105	-7.79516	18.57123	24.91203	1.29635	0.7714	133.06413	142.17911	49.50235	0.34402	 	1189188.788	 	5.41004E-6	 	11218.98713	47.17522	 
1040.0	1.0	0.0	7.38712	7.37755	-7.83898	18.49777	24.77799	1.29842	0.77017	133.65937	142.3693	49.74187	0.34353	 	1318459.9	 	4.8611E-6	 	10985.22547	46.75233	 
1035.0	1.0	0.0	7.3906	7.37407	-7.88238	18.42518	24.64657	1.30037	0.76901	134.24218	142.55543	49.97651	0.34305	 	1463006.3	 	4.36413E-6	 	10753.50373	46.34435	 
1030.0	1.0	0.0	7.39405	7.37063	-7.92537	18.35343	24.51766	1.30221	0.76792	134.81308	142.73771	50.20648	0.34259	 	1624772.423	 	3.91461E-6	 	10523.75071	45.9506	 
1025.0	1.0	0.0	7.39747	7.36722	-7.96796	18.28247	24.39115	1.30394	0.7669	135.37256	142.91635	50.43196	0.34213	 	1805967.543	 	3.50834E-6	 	10295.89791	45.57056	 
1020.0	1.0	0.0	7.40087	7.36384	-8.01017	18.21227	24.26693	1.30557	0.76595	135.92109	143.09152	50.65313	0.34169	 	2009104.116	 	3.14147E-6	 	10069.88012	45.20356	 
1015.0	1.0	0.0	7.40423	7.36049	-8.05201	18.14279	24.1449	1.3071	0.76506	136.45912	143.26342	50.87016	0.34125	 	2237041.966	 	2.81047E-6	 	9845.63488	44.84905	 
1010.0	1.0	0.0	7.40758	7.35717	-8.09349	18.074	24.02496	1.30852	0.76422	136.98708	143.43223	51.08322	0.34082	 	2493039.524	 	2.51209E-6	 	9623.10241	44.50649	 
1005.0	1.0	0.0	7.41089	7.35388	-8.13461	18.00587	23.90702	1.30985	0.76344	137.50538	143.59811	51.29248	0.3404	 	2780812.797	 	2.24335E-6	 	9402.22555	44.17537	 
1000.0	1.0	0.0	7.41418	7.35062	-8.1754	17.93837	23.79101	1.31109	0.76272	138.01442	143.76122	51.49808	0.34	 	3104603.655	 	2.00152E-6	 	9182.94963	43.85518	 
995.0	1.0	0.0	7.41745	7.34738	-8.21587	17.87147	23.67684	1.31224	0.76206	138.51458	143.92174	51.70017	0.3396	 	3469259.237	 	1.78411E-6	 	8965.22252	43.54542	 
990.0	1.0	0.0	7.4207	7.34416	-8.25601	17.80513	23.56444	1.3133	0.76144	139.00624	144.07981	51.89889	0.3392	 	3880323.34	 	1.58882E-6	 	8748.99394	43.24572	 
985.0	1.0	0.0	7.42392	7.34097	-8.29584	17.73934	23.45374	1.31428	0.76088	139.48973	144.23557	52.09439	0.33882	 	4344143.12	 	1.41356E-6	 	8534.21618	42.95555	 
980.0	1.0	0.0	7.42712	7.33781	-8.33538	17.67406	23.34467	1.31517	0.76036	139.9654	144.38917	52.28678	0.33844	 	4867992.604	 	1.25643E-6	 	8320.8435	42.67454	 
975.0	1.0	0.0	7.4303	7.33467	-8.37462	17.60927	23.23717	1.31598	0.75989	140.43357	144.54075	52.4762	0.33807	 	5460216.93	 	1.11569E-6	 	8108.83211	42.40228	 
970.0	1.0	0.0	7.43346	7.33155	-8.41357	17.54495	23.13119	1.31671	0.75947	140.89456	144.69044	52.66276	0.33771	 	6130399.143	 	9.89741E-7	 	7898.14015	42.13839	 
965.0	1.0	0.0	7.4366	7.32845	-8.45225	17.48106	23.02666	1.31737	0.75909	141.34866	144.83837	52.84659	0.33735	 	6889556.243	 	8.7714E-7	 	7688.72748	41.88253	 
960.0	1.0	0.0	7.43973	7.32538	-8.49066	17.4176	22.92354	1.31795	0.75875	141.79617	144.98466	53.02779	0.337	 	7750365.762	 	7.7657E-7	 	7480.55573	41.63435	 
955.0	1.0	0.0	7.44283	7.32233	-8.52881	17.35452	22.82178	1.31846	0.75846	142.23737	145.12943	53.20648	0.33665	 	8727433.088	 	6.86834E-7	 	7273.58813	41.39352	 
950.0	1.0	0.0	7.44591	7.31929	-8.5667	17.29182	22.72133	1.3189	0.75821	142.66771	145.26791	53.38096	0.33632	 	9837600.983	 	6.06844E-7	 	7067.78943	41.15974	 
945.0	1.0	0.0	7.44898	7.31628	-8.60434	17.22947	22.62214	1.31927	0.758	143.09711	145.41004	53.55493	0.33598	 	1.110031443E7	 	5.35614E-7	 	6863.12637	40.93261	 
940.0	1.0	0.0	7.45203	7.31329	-8.64174	17.16746	22.52419	1.31957	0.75782	143.52098	145.55099	53.7267	0.33566	 	1.253804838E7	 	4.72249E-7	 	6659.56556	40.71216	 
935.0	1.0	0.0	7.45506	7.31031	-8.67891	17.10575	22.42742	1.3198	0.75769	143.93955	145.69086	53.89635	0.33534	 	1.417680605E7	 	4.15939E-7	 	6457.07647	40.49782	 
930.0	1.0	0.0	7.45808	7.30735	-8.71584	17.04434	22.3318	1.31996	0.7576	144.35305	145.82977	54.06396	0.33502	 	1.60467079E7	 	3.65949E-7	 	6255.62927	40.28944	 
925.0	1.0	0.0	7.46108	7.30442	-8.75255	16.98319	22.23403	1.32026	0.75743	144.76172	145.96779	54.22964	0.33471	 	1.818268448E7	 	3.21618E-7	 	6055.19533	40.08679	 
920.0	1.0	0.0	7.46406	7.30149	-8.78904	16.92231	22.14057	1.3203	0.7574	145.16577	146.10504	54.39345	0.3344	 	2.062528938E7	 	2.82346E-7	 	5855.74715	39.88964	 
915.0	1.0	0.0	7.46703	7.29859	-8.82532	16.86166	22.04816	1.32028	0.75742	145.5654	146.24159	54.55549	0.3341	 	2.342165928E7	 	2.47594E-7	 	5657.2583	39.69777	 
910.0	1.0	0.0	7.46999	7.2957	-8.86138	16.80123	21.95678	1.32019	0.75747	145.96083	146.37755	54.71584	0.33381	 	2.662664804E7	 	2.16875E-7	 	5459.70335	39.51099	 
905.0	1.0	0.0	7.47293	7.29283	-8.89724	16.741	21.8664	1.32005	0.75755	146.35223	146.51299	54.87456	0.33352	 	3.030416575E7	 	1.89751E-7	 	5263.05786	39.3291	 
900.0	1.0	0.0	7.47585	7.28998	-8.9329	16.68096	21.777	1.31984	0.75767	146.73981	146.648	55.03174	0.33323	 	3.452876229E7	 	1.65829E-7	 	5067.29824	39.15192	 
895.0	1.0	0.0	7.47877	7.28714	-8.96837	16.62108	21.68856	1.31957	0.75782	147.12374	146.78265	55.18743	0.33295	 	3.938750558E7	 	1.44753E-7	 	4872.40179	38.97929	 
890.0	1.0	0.0	7.48167	7.28432	-9.00364	16.56136	21.60104	1.31925	0.75801	147.50421	146.91704	55.34173	0.33267	 	4.498220976E7	 	1.26206E-7	 	4678.34663	38.81103	 
885.0	1.0	0.0	7.48455	7.28151	-9.03872	16.50178	21.51443	1.31887	0.75823	147.88138	147.05122	55.49468	0.33239	 	5.143207914E7	 	1.09905E-7	 	4485.11165	38.647	 
880.0	1.0	0.0	7.48743	7.27871	-9.07363	16.44231	21.42871	1.31843	0.75848	148.25542	147.18528	55.64635	0.33212	 	5.887685483E7	 	9.55934E-8	 	4292.67638	38.48705	 
875.0	1.0	0.0	7.49029	7.27593	-9.10835	16.38295	21.34386	1.31793	0.75877	148.62648	147.31929	55.79682	0.33185	 	6.74805615E7	 	8.30437E-8	 	4101.02113	38.33105	 
870.0	1.0	0.0	7.49313	7.27317	-9.1429	16.32368	21.25986	1.31737	0.75909	148.99473	147.45331	55.94613	0.33159	 	7.743598243E7	 	7.20522E-8	 	3910.12693	38.17884	 
865.0	1.0	0.0	7.49597	7.27042	-9.17728	16.26449	21.17669	1.31676	0.75944	149.36032	147.58741	56.09435	0.33133	 	8.896998281E7	 	6.24371E-8	 	3719.9754	38.03031	 
860.0	1.0	0.0	7.49879	7.26768	-9.21149	16.20536	21.09435	1.3161	0.75982	149.72339	147.72165	56.24154	0.33107	 	1.023499023E8	 	5.40364E-8	 	3530.54867	37.88534	 
