T (C)	Fraction solid (wt)-TOTAL	Fraction liquid (wt)-LIQUID	Density (g/(cm)^3)-TOTAL	Molar volume (cm^3)-TOTAL	Volume change (%)-  	Average expansion coeff. (10e-6 1/K)-  	Thermal conductivity (W/(m*K))-TOTAL	Electrical resistivity (10e-6 Ohm*m)-TOTAL	Electrical conductivity (10e6 1/(Ohm*m))-TOTAL	Young's modulus (GPa)-TOTAL	Bulk modulus (GPa)-TOTAL	Shear modulus(GPa)-TOTAL	Poisson's ratio-TOTAL	Liquid viscosity (mPa s)-  	Total viscosity (mPa s)-  	Liquid diffusivity (10e-9 (m^2)/s)-  	Total diffusivity (10e-9 (m^2)/s)-  	Surface Tension (mN/m)-  	Enthalpy (J/mole)-TOTAL	Specific heat (J/(mole K))-TOTAL	Latent heat (J/mole)-TOTAL
1400.0	0.00335	0.99665	7.05296	7.95773	0.0	34.68777	30.1792	1.35829	0.73622	1.08419E-7	121.08582	3.61642E-8	0.49898	6.38454	6.38454	1.27906	1.27906	1755.04854	41413.215	 	0.0
1395.0	0.00354	0.99646	7.0573	7.95285	-0.0613618	34.64371	30.09398	1.35807	0.73634	1.34768E-7	121.27988	4.49548E-8	0.49893	6.45586	6.45586	1.26115	1.26115	1758.41176	41200.68	42.507	13.014
1390.0	0.00372	0.99628	7.06161	7.94793	-0.12308	34.59833	30.00868	1.35785	0.73646	1.65341E-7	121.47242	5.51555E-8	0.49887	6.52837	6.52837	1.24341	1.24341	1761.81091	40988.743	42.3874	25.865
1385.0	0.0039	0.9961	7.06592	7.94313	-0.18347	34.55632	29.9236	1.35761	0.73659	2.00444E-7	121.66603	6.68677E-8	0.49881	6.60208	6.60208	1.22583	1.22583	1765.24333	40777.4	42.2686	38.557
1380.0	0.00408	0.99592	7.07016	7.93831	-0.24404	34.51351	29.83863	1.35737	0.73672	2.4043E-7	121.8573	8.02099E-8	0.49876	6.67694	6.67694	1.20843	1.20843	1768.71057	40566.649	42.1502	51.086
1375.0	0.00426	0.99574	7.07444	7.9335	-0.30444	34.47087	29.75354	1.35714	0.73684	2.85646E-7	122.04906	9.52979E-8	0.4987	6.75314	6.75314	1.19118	1.19118	1772.21169	40356.486	42.0326	63.457
1370.0	0.00444	0.99556	7.07872	7.92879	-0.36368	34.43119	29.6687	1.35689	0.73698	3.36364E-7	122.24176	1.12222E-7	0.49865	6.83063	6.83063	1.17409	1.17409	1775.74481	40146.908	41.9156	75.668
1365.0	0.00461	0.99539	7.08297	7.92399	-0.42402	34.3881	29.58361	1.35665	0.73711	3.92963E-7	122.43173	1.31111E-7	0.4986	6.90947	6.90947	1.15717	1.15717	1779.31253	39937.91	41.7996	87.724
1360.0	0.00478	0.99522	7.08721	7.91922	-0.48391	34.34595	29.4986	1.35641	0.73724	4.55718E-7	122.62145	1.52054E-7	0.49854	6.98965	6.98965	1.1404	1.1404	1782.91218	39729.49	41.684	99.622
1355.0	0.00495	0.99505	7.09145	7.91447	-0.5436	34.30406	29.41397	1.35615	0.73738	5.24916E-7	122.8109	1.75148E-7	0.49849	7.07114	7.07114	1.12381	1.12381	1786.54353	39521.645	41.569	111.364
1350.0	0.00512	0.99488	7.09566	7.90977	-0.60266	34.26367	29.3291	1.35589	0.73752	6.00844E-7	123.00011	2.0049E-7	0.49844	7.15412	7.15412	1.10736	1.10736	1790.20536	39314.371	41.4548	122.951
1345.0	0.00529	0.99471	7.09989	7.90517	-0.66042	34.22676	29.24445	1.35563	0.73766	6.83753E-7	123.19045	2.28162E-7	0.49839	7.23854	7.23854	1.09107	1.09107	1793.89607	39107.664	41.3414	134.383
1341.53	0.0054	0.9946	7.1028	7.9018	-0.70284	34.19408	29.18573	1.35545	0.73776	7.45569E-7	123.31854	2.48797E-7	0.49835	7.29789	7.29789	1.07988	1.07988	1796.47581	38964.714	41.24196	142.203
1340.0	0.0817609	0.91824	7.1282	7.87369	-1.05609	33.2104	29.40649	1.34399	0.74405	0.00302649	124.46999	0.00101631	0.48896	7.32951	8.86289	1.0742	0.88835	1796.42896	37798.697	760.17981	1248.479
1335.0	0.29118	0.70882	7.19884	7.79645	-2.02665	30.51418	30.03466	1.31181	0.76231	0.63317	128.66129	0.21643	0.46274	7.43409	115.94124	1.05581	0.0676979	1795.9579	34591.609	641.4176	4261.112
1330.0	0.43835	0.56165	7.24992	7.74145	-2.7179	28.6128	30.48907	1.28824	0.77625	3.48886	131.65091	1.20816	0.44387	7.54037	573.96425	1.03769	0.0136325	1795.19889	32304.125	457.4968	6354.545
1325.0	0.5454	0.4546	7.28807	7.70092	-3.22712	27.23033	30.82136	1.27037	0.78717	8.72472	133.88483	3.05084	0.42989	7.64845	1423.31325	1.01984	0.00548029	1797.96169	30607.34563	339.35587	7856.389
1320.0	0.62551	0.37449	7.31622	7.67089	-3.60449	26.22512	31.06145	1.25661	0.79579	15.54921	135.55742	5.47805	0.41923	7.75866	2570.82958	1.0022	0.00302461	1800.74374	29305.02195	260.46474	8963.942
1315.0	0.68691	0.31309	7.33828	7.64747	-3.89888	25.45723	31.2367	1.24564	0.8028	23.12457	136.88951	8.19481	0.41093	7.87087	3924.04228	0.98482	0.00197535	1803.54285	28274.12624	206.17914	9800.5
1310.0	0.73497	0.26503	7.35608	7.62875	-4.13411	24.85877	31.36298	1.23672	0.80859	30.84137	137.98775	10.98077	0.40434	7.98552	5413.7468	0.96762	0.00142729	1806.35351	27435.0335	167.81855	10445.684
1305.0	0.77323	0.22677	7.37082	7.61335	-4.32766	24.37973	31.45174	1.22933	0.81345	38.32975	138.91916	13.69896	0.399	8.10275	6997.28796	0.95061	0.00110079	1809.18168	26734.79324	140.04805	10952.443
1300.0	0.80419	0.19581	7.38331	7.60042	-4.49013	23.98979	31.5115	1.22311	0.81758	45.39467	139.7298	16.27493	0.39462	8.22286	8652.6697	0.93376	8.87374E-4	1812.02416	26137.25998	119.50665	11356.918
1295.0	0.8392	0.1608	7.39675	7.58661	-4.66365	23.56366	31.59174	1.21613	0.82228	54.55659	140.67952	19.63009	0.38962	8.35594	10857.99615	0.91596	7.04895E-4	1814.67424	25479.07624	131.63675	11822.463
1290.0	0.87132	0.12868	7.4093	7.57371	-4.82574	23.16856	31.66379	1.20949	0.82679	64.19867	141.59678	23.17706	0.38496	8.49483	13368.22229	0.89812	5.70708E-4	1817.22144	24861.58553	123.49814	12247.733
1285.0	0.89621	0.10379	7.41989	7.56284	-4.96229	22.84756	31.70165	1.20419	0.83044	72.59617	142.37741	26.27849	0.38128	8.62524	15871.49097	0.88171	4.79157E-4	1819.7545	24341.39439	104.03823	12576.119
1280.0	0.91774	0.0822572	7.43007	7.55252	-5.09199	22.5448	31.71646	1.19976	0.8335	80.55904	143.09372	29.22926	0.37805	8.73	18524.16617	0.86833	4.09224E-4	1822.25337	23861.03535	96.07181	12865.085
1275.0	0.93394	0.066059	7.43851	7.54399	-5.19915	22.30833	31.70967	1.19615	0.83601	87.07698	143.71211	31.65146	0.37556	8.83396	21113.41368	0.85535	3.57883E-4	1824.75125	23456.74391	80.85829	13078.394
1270.0	0.94645	0.0535524	7.44574	7.53669	-5.29089	22.11715	31.68818	1.1931	0.83815	92.47655	144.2635	33.66273	0.37357	8.93721	23688.40618	0.84274	3.1795E-4	1827.24971	23104.61862	70.42506	13239.943
1265.0	0.95632	0.0436846	7.45211	7.53027	-5.37158	21.95839	31.6557	1.19045	0.84002	97.00673	144.76741	35.35345	0.37196	9.04	26290.24033	0.83046	2.85556E-4	1829.74739	22789.48602	63.02652	13364.905
1260.0	0.96425	0.0357521	7.45784	7.5245	-5.44416	21.82338	31.6148	1.18812	0.84167	100.8561	145.23646	36.79253	0.37061	9.1424	28953.79647	0.81849	2.58444E-4	1832.24445	22501.33862	57.62948	13463.282
1255.0	0.97072	0.0292756	7.46309	7.51922	-5.51051	21.70654	31.56733	1.18603	0.84315	104.16709	145.67926	38.03219	0.36946	9.24458	31709.50415	0.8068	2.35214E-4	1834.7344	22233.36698	53.59433	13541.883
1250.0	0.97609	0.0239123	7.46797	7.51431	-5.57216	21.60337	31.51464	1.18412	0.84451	107.04866	146.10166	39.11257	0.36847	9.34659	34584.52442	0.79538	2.14955E-4	1837.22219	21980.80562	50.51227	13605.47
1245.0	0.98058	0.0194183	7.47256	7.5097	-5.63011	21.51094	31.45774	1.18237	0.84576	109.5838	146.50789	40.06427	0.3676	9.44858	37604.17007	0.78421	1.97045E-4	1839.70652	21740.23811	48.1135	13657.459
1240.0	0.98439	0.0156129	7.47691	7.50533	-5.68505	21.42716	31.39755	1.18073	0.84693	111.83684	146.90107	40.91108	0.36683	9.55072	40792.78818	0.77327	1.81044E-4	1842.18363	21509.16297	46.21503	13700.345
1235.0	0.98764	0.0123608	7.48108	7.50115	-5.73757	21.35032	31.33427	1.17921	0.84803	113.85742	147.28337	41.67139	0.36613	9.65288	44173.87205	0.76256	1.66635E-4	1844.65555	21285.71576	44.68944	13735.993
1230.0	0.99044	0.0095575	7.48509	7.49713	-5.78809	21.27916	31.26858	1.17777	0.84906	115.68516	147.65655	42.35988	0.3655	9.75553	47771.63377	0.75204	1.53574E-4	1847.12175	21068.48503	43.44615	13765.811
1225.0	0.99288	0.00712277	7.48896	7.49324	-5.83692	21.21278	31.20082	1.1764	0.85005	117.35163	148.02193	42.98829	0.36493	9.85848	51610.66467	0.74171	1.41678E-4	1849.57803	20856.38034	42.42094	13790.885
1220.0	0.995	0.00499563	7.49273	7.48947	-5.88433	21.15038	31.1313	1.17509	0.851	118.88156	148.38043	43.5658	0.36439	9.96208	55716.49526	0.73154	1.308E-4	1852.02973	20648.55623	41.56482	13812.061
1215.0	0.99688	0.00312467	7.49641	7.4858	-5.93049	21.09141	31.06028	1.17384	0.85191	120.29507	148.73287	44.0999	0.36389	10.0662	60116.03568	0.72155	1.20821E-4	1854.4712	20444.34228	40.84279	13830.006
1210.0	0.99853	0.00147019	7.50001	7.4822	-5.97564	21.03524	30.98795	1.17262	0.85279	121.61034	149.08041	44.59736	0.36343	10.1712	64842.18248	0.7117	1.11639E-4	1856.90649	20242.70609	40.32724	13845.251
1205.0	1.0	0.0	7.50356	7.47868	-6.01996	20.98127	30.91478	1.17144	0.85365	122.84039	149.4236	45.06303	0.36298	 	69924.00419	 	1.03176E-4	 	20043.62659	39.8159	13858.225
1200.0	1.0	0.0	7.50602	7.47623	-6.05073	20.97078	30.83177	1.17062	0.85425	123.28278	149.71947	45.23267	0.36276	 	74998.60991	 	9.58695E-5	 	19858.75037	36.97524	 
1195.0	1.0	0.0	7.50847	7.47378	-6.08145	20.96035	30.74876	1.16979	0.85485	123.72416	150.01342	45.40199	0.36254	 	80479.33552	 	8.90375E-5	 	19681.69279	35.41152	 
1190.0	1.0	0.0	7.51093	7.47134	-6.11213	20.94997	30.66575	1.16896	0.85546	124.16452	150.30544	45.57099	0.36232	 	86401.6384	 	8.2652E-5	 	19504.9218	35.3542	 
1185.0	1.0	0.0	7.51338	7.4689	-6.14276	20.93965	30.58273	1.16813	0.85607	124.60387	150.59555	45.73966	0.3621	 	92804.31982	 	7.66868E-5	 	19328.43554	35.29725	 
1180.0	1.0	0.0	7.51583	7.46647	-6.17335	20.92939	30.49971	1.1673	0.85668	125.0422	150.88377	45.908	0.36188	 	99729.87672	 	7.11167E-5	 	19152.23216	35.24068	 
1175.0	1.0	0.0	7.51827	7.46404	-6.20389	20.91919	30.41669	1.16645	0.8573	125.47953	151.17011	46.07603	0.36166	 	107224.8627	 	6.59181E-5	 	18976.3099	35.18445	 
1174.46	1.0	0.0	7.51854	7.46378	-6.20719	20.9181	30.40771	1.16636	0.85737	125.52676	151.20096	46.09418	0.36163	 	108071.5345	 	6.53773E-5	 	18957.30245	 	 
1170.0	1.0	0.0	7.52371	7.45865	-6.27167	20.78498	30.12206	1.1738	0.85194	126.53309	151.45399	46.49363	0.36076	 	116515.3974	 	6.04526E-5	 	18649.46068	65.36984	 
1165.0	1.0	0.0	7.52939	7.45303	-6.3423	20.64007	29.81396	1.18182	0.84615	127.61261	151.71395	46.92296	0.35981	 	126858.1268	 	5.53315E-5	 	18311.1508	67.66197	 
1160.0	1.0	0.0	7.53493	7.44754	-6.41126	20.4995	29.51804	1.18952	0.84068	128.64465	151.95226	47.33418	0.3589	 	138220.9234	 	5.06063E-5	 	17979.72605	66.28495	 
1155.0	1.0	0.0	7.54036	7.44218	-6.47863	20.36305	29.2336	1.1969	0.83549	129.63297	152.17195	47.72869	0.35802	 	150713.2553	 	4.62497E-5	 	17654.83403	64.97841	 
1150.0	1.0	0.0	7.54567	7.43694	-6.54448	20.2305	28.96	1.20398	0.83058	130.58089	152.37554	48.10771	0.35717	 	164457.2265	 	4.22362E-5	 	17336.14482	63.73784	 
1145.0	1.0	0.0	7.55088	7.43181	-6.6089	20.10167	28.69664	1.21076	0.82593	131.49139	152.56514	48.47234	0.35635	 	179589.1407	 	3.85415E-5	 	17023.34916	62.55913	 
1140.0	1.0	0.0	7.55598	7.42679	-6.67195	19.97635	28.44295	1.21725	0.82152	132.36712	152.74254	48.82355	0.35557	 	196261.2711	 	3.51431E-5	 	16716.15711	61.43841	 
1135.0	1.0	0.0	7.56098	7.42188	-6.73369	19.85438	28.1984	1.22346	0.81735	133.21047	152.90928	49.16225	0.3548	 	214643.8252	 	3.20197E-5	 	16414.29646	60.37213	 
1130.0	1.0	0.0	7.56589	7.41707	-6.7942	19.73559	27.96249	1.2294	0.8134	134.02361	153.06664	49.48923	0.35407	 	234927.2421	 	2.91513E-5	 	16117.51149	59.357	 
1125.0	1.0	0.0	7.57071	7.41234	-6.85352	19.61981	27.73474	1.23508	0.80966	134.80851	153.21577	49.80524	0.35336	 	257324.7356	 	2.65191E-5	 	15825.56176	58.38995	 
1120.0	1.0	0.0	7.57544	7.40771	-6.91171	19.50691	27.51471	1.24051	0.80612	135.56696	153.35762	50.11095	0.35267	 	282075.1912	 	2.41057E-5	 	15538.22085	57.46818	 
1115.0	1.0	0.0	7.58009	7.40317	-6.96882	19.39674	27.30198	1.24569	0.80277	136.30061	153.49306	50.40698	0.352	 	309446.5005	 	2.18946E-5	 	15255.27585	56.589	 
1110.0	1.0	0.0	7.58466	7.39871	-7.02491	19.28917	27.09616	1.25063	0.7996	137.01098	153.62281	50.6939	0.35136	 	339739.2548	 	1.98706E-5	 	14976.52558	55.75005	 
1105.0	1.0	0.0	7.58916	7.39432	-7.08001	19.18407	26.89688	1.25534	0.7966	137.69947	153.74753	50.97225	0.35073	 	373291.0701	 	1.80192E-5	 	14701.78062	54.94899	 
1104.14	1.0	0.0	7.58993	7.39357	-7.0894	19.16622	26.86319	1.25613	0.7961	137.81594	153.76855	51.01936	0.35062	 	379425.8747	 	1.77168E-5	 	14654.84954	 	 
1100.54	1.0	0.0	7.59449	7.38914	-7.14513	19.03288	26.70352	1.26034	0.79344	138.43588	153.74146	51.27537	0.34993	 	406927.902	 	1.64763E-5	 	14407.68615	 	 
1100.0	1.0	0.0	7.59496	7.38867	-7.15096	19.02181	26.68303	1.26081	0.79314	138.5075	153.75446	51.30437	0.34986	 	411161.0439	 	1.63002E-5	 	14378.42153	64.67182	 
1095.0	1.0	0.0	7.59932	7.38443	-7.20427	18.92088	26.49705	1.26503	0.79049	139.15796	153.87252	51.56782	0.34927	 	452578.4654	 	1.47546E-5	 	14110.35943	53.61242	 
1090.0	1.0	0.0	7.60362	7.38026	-7.25668	18.82218	26.3166	1.26905	0.78799	139.78991	153.98723	51.82396	0.3487	 	498561.8684	 	1.33448E-5	 	13845.93848	52.88419	 
1085.0	1.0	0.0	7.60785	7.37616	-7.30825	18.7256	26.14139	1.27287	0.78562	140.40443	154.09898	52.0732	0.34814	 	549655.1862	 	1.20599E-5	 	13584.98939	52.18982	 
1080.0	1.0	0.0	7.61202	7.37212	-7.359	18.63104	25.97115	1.2765	0.78339	141.00252	154.2081	52.31594	0.34761	 	606471.7786	 	1.08899E-5	 	13327.35375	51.52713	 
1075.0	1.0	0.0	7.61613	7.36814	-7.40898	18.5384	25.80561	1.27994	0.78129	141.58512	154.31493	52.55252	0.34708	 	669703.9009	 	9.82522E-6	 	13072.88273	50.8942	 
1070.0	1.0	0.0	7.62018	7.36422	-7.45821	18.44759	25.64454	1.2832	0.7793	142.15314	154.41976	52.78331	0.34657	 	740133.4772	 	8.8573E-6	 	12821.43618	50.28931	 
1065.0	1.0	0.0	7.62418	7.36036	-7.50673	18.35851	25.4877	1.28629	0.77743	142.70738	154.52284	53.00861	0.34608	 	818644.4859	 	7.97804E-6	 	12572.88185	49.71087	 
1060.0	1.0	0.0	7.62812	7.35656	-7.55457	18.27108	25.33488	1.28922	0.77566	143.24864	154.62444	53.22873	0.3456	 	906237.0739	 	7.17999E-6	 	12327.09536	49.1573	 
1055.0	1.0	0.0	7.63202	7.3528	-7.60176	18.18522	25.18587	1.29198	0.77401	143.77764	154.72477	53.44396	0.34513	 	1004043.94	 	6.45626E-6	 	12083.95893	48.62729	 
1050.0	1.0	0.0	7.63586	7.3491	-7.64832	18.10086	25.0405	1.29459	0.77245	144.29508	154.82405	53.65455	0.34467	 	1113348.881	 	5.80049E-6	 	11843.36123	48.11954	 
1045.0	1.0	0.0	7.63967	7.34544	-7.69427	18.01792	24.89859	1.29705	0.77098	144.8016	154.92245	53.86077	0.34422	 	1235608.43	 	5.2068E-6	 	11605.19734	47.63278	 
1040.0	1.0	0.0	7.64342	7.34183	-7.73965	17.93633	24.75996	1.29936	0.76961	145.29781	155.02016	54.06285	0.34379	 	1372476.431	 	4.66978E-6	 	11369.36747	47.16597	 
1035.0	1.0	0.0	7.64714	7.33826	-7.78447	17.85604	24.62446	1.30154	0.76832	145.78429	155.11734	54.26101	0.34336	 	1525832.456	 	4.18444E-6	 	11135.77744	46.71801	 
1030.0	1.0	0.0	7.65081	7.33474	-7.82876	17.77697	24.49195	1.30358	0.76712	146.26159	155.21415	54.45548	0.34295	 	1697814.806	 	3.7462E-6	 	10904.33805	46.28788	 
1025.0	1.0	0.0	7.65445	7.33125	-7.87253	17.69907	24.36229	1.30549	0.766	146.73022	155.31072	54.64645	0.34254	 	1890858.132	 	3.35083E-6	 	10674.96424	45.87476	 
1020.0	1.0	0.0	7.65804	7.32781	-7.9158	17.62229	24.23535	1.30727	0.76495	147.19068	155.40718	54.83411	0.34215	 	2107737.365	 	2.99446E-6	 	10447.57566	45.47772	 
1015.0	1.0	0.0	7.66161	7.3244	-7.9586	17.54657	24.111	1.30893	0.76398	147.64341	155.50366	55.01865	0.34176	 	2351617.957	 	2.67354E-6	 	10222.09593	45.09595	 
1010.0	1.0	0.0	7.66513	7.32104	-8.00094	17.47185	23.98914	1.31048	0.76308	148.08887	155.60028	55.20023	0.34138	 	2626114.775	 	2.38479E-6	 	9998.45257	44.72867	 
1005.0	1.0	0.0	7.66862	7.3177	-8.04284	17.3981	23.86965	1.3119	0.76225	148.52746	155.69713	55.37903	0.34101	 	2935359.475	 	2.12524E-6	 	9776.57622	44.37527	 
1000.0	1.0	0.0	7.67208	7.3144	-8.08431	17.32527	23.75244	1.31322	0.76149	148.95957	155.79431	55.55519	0.34065	 	3284079.33	 	1.89214E-6	 	9556.40134	44.03498	 
995.0	1.0	0.0	7.67551	7.31113	-8.12536	17.2533	23.6374	1.31443	0.76079	149.38558	155.89193	55.72885	0.34029	 	3677688.424	 	1.68299E-6	 	9337.8654	43.70719	 
990.0	1.0	0.0	7.67891	7.3079	-8.16602	17.18216	23.52445	1.31553	0.76015	149.80584	155.99006	55.90017	0.33994	 	4122393.649	 	1.49552E-6	 	9120.90883	43.39131	 
985.0	1.0	0.0	7.68228	7.30469	-8.20629	17.11182	23.41349	1.31653	0.75957	150.2207	156.08878	56.06927	0.3396	 	4625318.082	 	1.32763E-6	 	8905.47489	43.08679	 
980.0	1.0	0.0	7.68562	7.30152	-8.24619	17.04221	23.30447	1.31744	0.75905	150.63045	156.18817	56.23628	0.33926	 	5194644.639	 	1.17743E-6	 	8691.50964	42.79305	 
975.0	1.0	0.0	7.68893	7.29837	-8.28573	16.97333	23.19855	1.31817	0.75863	151.03542	156.28831	56.40132	0.33894	 	5839783.383	 	1.04317E-6	 	8478.96113	42.5097	 
970.0	1.0	0.0	7.69222	7.29525	-8.32492	16.90511	23.09304	1.31889	0.75821	151.43587	156.38924	56.5645	0.33861	 	6571567.802	 	9.23297E-7	 	8267.78028	42.23617	 
968.13	1.0	0.0	7.69344	7.29409	-8.3395	16.87974	23.05401	1.31913	0.75807	151.58462	156.42724	56.62511	0.33849	 	6870144.075	 	8.81841E-7	 	8189.10623	 	 
965.0	1.0	0.0	7.6955	7.29215	-8.36394	16.83687	22.98903	1.31953	0.75785	151.83253	156.5006	56.7257	0.3383	 	7404376.24	 	8.16153E-7	 	8057.08847	42.13836	 
960.0	1.0	0.0	7.69876	7.28906	-8.40274	16.76878	22.88649	1.32009	0.75753	152.2255	156.61879	56.8851	0.33801	 	8352560.55	 	7.20581E-7	 	7847.12017	41.99366	 
955.0	1.0	0.0	7.70199	7.286	-8.44124	16.7012	22.78564	1.32055	0.75726	152.61478	156.73819	57.04296	0.33772	 	9431956.368	 	6.3553E-7	 	7638.31758	41.76052	 
950.0	1.0	0.0	7.70521	7.28296	-8.47945	16.63408	22.68749	1.32087	0.75708	153.00063	156.85887	57.19937	0.33743	 	1.066202659E7	 	5.59921E-7	 	7430.64095	41.53533	 
945.0	1.0	0.0	7.7084	7.27994	-8.51738	16.56741	22.58943	1.32118	0.7569	153.38326	156.98088	57.35442	0.33715	 	1.20653102E7	 	4.92775E-7	 	7224.05226	41.31774	 
940.0	1.0	0.0	7.71158	7.27694	-8.55503	16.50115	22.4928	1.32141	0.75677	153.76291	157.10427	57.5082	0.33688	 	1.366793679E7	 	4.3321E-7	 	7018.51526	41.1074	 
935.0	1.0	0.0	7.71473	7.27397	-8.59241	16.43529	22.39649	1.32162	0.75665	154.13977	157.22908	57.6608	0.33661	 	1.550023342E7	 	3.80425E-7	 	6813.99542	40.90397	 
932.19	1.0	0.0	7.71649	7.27231	-8.61329	16.39846	22.34352	1.32168	0.75662	154.35029	157.29982	57.74601	0.33646	 	1.664298527E7	 	3.53481E-7	 	6699.56324	 	 
930.0	1.0	0.0	7.71785	7.27103	-8.62939	16.37038	22.30275	1.32168	0.75661	154.51376	157.34813	57.81249	0.33634	 	1.759396125E7	 	3.33767E-7	 	6611.13767	40.57155	 
925.0	1.0	0.0	7.72094	7.26812	-8.66593	16.30663	22.21067	1.32165	0.75663	154.88492	157.45922	57.96339	0.33606	 	1.998743954E7	 	2.92577E-7	 	6410.14824	40.19789	 
920.0	1.0	0.0	7.72401	7.26523	-8.70221	16.24327	22.11983	1.32154	0.75669	155.2538	157.57159	58.11332	0.33578	 	2.273176929E7	 	2.56182E-7	 	6210.14571	40.00051	 
915.0	1.0	0.0	7.72706	7.26236	-8.73824	16.18027	22.0302	1.32135	0.7568	155.62056	157.68527	58.26235	0.33552	 	2.588198868E7	 	2.24058E-7	 	6011.09949	39.80925	 
910.0	1.0	0.0	7.73009	7.25952	-8.77403	16.11762	21.94173	1.3211	0.75695	155.98537	157.80029	58.41054	0.33525	 	2.950232708E7	 	1.95736E-7	 	5812.98022	39.62385	 
905.0	1.0	0.0	7.7331	7.25669	-8.80957	16.05529	21.8544	1.32077	0.75713	156.34838	157.91669	58.55795	0.33499	 	3.366783079E7	 	1.70794E-7	 	5615.75973	39.4441	 
900.0	1.0	0.0	7.7361	7.25388	-8.84489	15.99325	21.76817	1.32038	0.75736	156.70974	158.03448	58.70464	0.33473	 	3.846629275E7	 	1.48854E-7	 	5419.41095	39.26976	 
895.0	1.0	0.0	7.73908	7.25108	-8.87998	15.9315	21.683	1.31991	0.75763	157.06959	158.1537	58.85067	0.33448	 	4.400054496E7	 	1.29577E-7	 	5223.90788	39.10061	 
890.0	1.0	0.0	7.74204	7.24831	-8.91484	15.86999	21.59888	1.31938	0.75793	157.42805	158.27437	58.99609	0.33422	 	5.039119138E7	 	1.12659E-7	 	5029.22552	38.93647	 
885.0	1.0	0.0	7.74499	7.24555	-8.9495	15.80873	21.51576	1.31879	0.75827	157.78527	158.3965	59.14095	0.33398	 	5.777985359E7	 	9.78307E-8	 	4835.33981	38.77714	 
880.0	1.0	0.0	7.74792	7.24281	-8.98394	15.74768	21.43363	1.31812	0.75865	158.14135	158.52012	59.2853	0.33373	 	6.633305334E7	 	8.48482E-8	 	4642.22745	38.62247	 
875.0	1.0	0.0	7.75083	7.24009	-9.01818	15.68683	21.35245	1.3174	0.75907	158.49642	158.64526	59.42919	0.33349	 	7.62468504E7	 	7.3496E-8	 	4449.86611	38.47227	 
