T (C)	Fraction solid (wt)-TOTAL	Fraction liquid (wt)-LIQUID	Density (g/(cm)^3)-TOTAL	Molar volume (cm^3)-TOTAL	Volume change (%)-  	Average expansion coeff. (10e-6 1/K)-  	Thermal conductivity (W/(m*K))-TOTAL	Electrical resistivity (10e-6 Ohm*m)-TOTAL	Electrical conductivity (10e6 1/(Ohm*m))-TOTAL	Young's modulus (GPa)-TOTAL	Bulk modulus (GPa)-TOTAL	Shear modulus(GPa)-TOTAL	Poisson's ratio-TOTAL	Liquid viscosity (mPa s)-  	Total viscosity (mPa s)-  	Liquid diffusivity (10e-9 (m^2)/s)-  	Total diffusivity (10e-9 (m^2)/s)-  	Surface Tension (mN/m)-  	Enthalpy (J/mole)-TOTAL	Specific heat (J/(mole K))-TOTAL	Latent heat (J/mole)-TOTAL
1400.0	0.0	1.0	7.36643	7.56072	0.0	24.82681	28.68604	1.42899	0.69979	0.0	126.80319	0.0	0.5	7.78451	7.78451	1.04904	1.04904	1819.2678	63297.153	 	0.0
1395.92	0.0	1.0	7.36966	7.55742	-0.0437263	24.78348	28.63846	1.42788	0.70034	0.0	126.94734	0.0	0.5	7.85255	7.85255	1.03741	1.03741	1820.77223	63124.923	42.21417	0.0
1395.0	0.05489	0.94511	7.37827	7.54857	-0.16079	24.48614	28.83555	1.41734	0.70555	8.13885E-4	126.03359	2.72759E-4	0.49195	7.86422	8.74884	1.0353	0.93062	1821.03153	62272.823	926.10505	813.305
1390.0	0.29882	0.70118	7.41657	7.50969	-0.67493	23.19172	29.7281	1.37066	0.72957	0.73325	121.85634	0.25185	0.45575	7.91945	289.84705	1.025	0.0280059	1822.37256	58454.938	763.577	4420.677
1385.0	0.45636	0.54364	7.44205	7.48395	-1.01549	22.3568	30.31693	1.34	0.74627	4.05983	119.18518	1.41753	0.43201	7.96811	1623.52409	1.01568	0.00498485	1823.71609	55921.505	506.6866	6744.109
1380.0	0.56378	0.43622	7.46014	7.46579	-1.25562	21.78807	30.71838	1.3185	0.75844	9.58462	117.42833	3.38531	0.41562	8.01122	4001.85085	1.00716	0.00201622	1825.06648	54132.59	357.783	8323.53
1375.0	0.64029	0.35971	7.4737	7.45223	-1.43494	21.38066	30.99582	1.30275	0.76761	16.12253	116.2545	5.74238	0.40382	8.04967	7069.54011	0.99932	0.00113787	1826.42643	52802.271	266.0638	9444.861
1370.0	0.69677	0.30323	7.48436	7.44163	-1.57514	21.07709	31.18829	1.29078	0.77473	22.82062	115.47026	8.17931	0.39502	8.0842	10537.18694	0.99203	7.61096E-4	1827.79721	51768.93	206.6682	10269.715
1365.0	0.73973	0.26027	7.49306	7.43299	-1.68943	20.84231	31.32096	1.2814	0.7804	29.2294	114.95475	10.52734	0.38826	8.1155	14235.87683	0.9852	5.61638E-4	1829.17937	50936.108	166.5644	10894.551
1360.0	0.77322	0.22678	7.50042	7.4257	-1.78592	20.65478	31.41047	1.27385	0.78502	35.15254	114.6312	12.70938	0.38294	8.14406	18080.75624	0.97875	4.40855E-4	1830.57319	50243.54	138.5136	11379.631
1355.0	0.79989	0.20011	7.5068	7.41938	-1.86945	20.50164	31.46819	1.26762	0.78888	40.53439	114.44871	14.70071	0.37865	8.17042	22039.39758	0.97261	3.60563E-4	1831.97803	49652.069	118.2942	11764.11
1350.0	0.82151	0.17849	7.51248	7.41376	-1.94381	20.37278	31.50198	1.26237	0.79216	45.3885	114.3715	16.5032	0.37514	8.1949	26108.5388	0.96672	3.03433E-4	1833.39385	49135.385	103.3368	12074.295
1345.0	0.83932	0.16068	7.51763	7.40868	-2.01096	20.26302	31.51739	1.25787	0.795	49.75284	114.37546	18.1286	0.37222	8.21792	30298.84763	0.96104	2.60663E-4	1834.8196	48675.288	92.0194	12328.382
1340.0	0.85418	0.14582	7.52237	7.40402	-2.07262	20.16777	31.51857	1.25393	0.79749	53.6839	114.4423	19.59625	0.36975	8.23971	34633.96675	0.95554	2.27331E-4	1836.25463	48258.862	83.2852	12539.288
1335.0	0.86674	0.13326	7.52679	7.39967	-2.13015	20.08335	31.5084	1.25045	0.79971	57.23171	114.55878	20.92359	0.36764	8.26056	39138.21695	0.95018	2.00545E-4	1837.69874	47876.732	76.426	12716.382
1330.0	0.87747	0.12253	7.53096	7.39558	-2.18425	20.00795	31.48914	1.24732	0.80172	60.44479	114.71516	22.12785	0.36581	8.28074	43840.34387	0.94491	1.78479E-4	1839.15084	47521.96	70.9544	12866.602
1325.0	0.88671	0.11329	7.53493	7.39167	-2.23596	19.93875	31.46244	1.24449	0.80354	63.36651	114.90337	23.22464	0.36421	8.30031	48770.02479	0.93974	1.59938E-4	1840.61132	47189.315	66.529	12995.175
1320.0	0.89474	0.10526	7.53873	7.38795	-2.28517	19.8761	31.42968	1.24189	0.80522	66.03303	115.11842	24.22696	0.3628	8.31965	53959.0187	0.93463	1.44105E-4	1842.078	46874.796	62.9038	13106.102
1315.0	0.90177	0.098227	7.5424	7.38436	-2.3327	19.81775	31.39185	1.23948	0.80679	68.478	115.35507	25.1471	0.36155	8.33875	59440.45171	0.92956	1.30406E-4	1843.5516	46575.291	59.901	13202.49
1310.0	0.90797	0.092028	7.54596	7.38087	-2.37881	19.76298	31.34978	1.23724	0.80825	70.73296	115.60951	25.99665	0.36042	8.3578	65252.24547	0.92452	1.18417E-4	1845.03156	46288.356	57.387	13286.782
1307.11	0.91123	0.088775	7.54797	7.3789	-2.4048	19.73313	31.32374	1.236	0.80906	71.95597	115.76447	26.45774	0.35983	8.36901	68778.38109	0.92159	1.1214E-4	1845.89212	46127.311	 	13330.718
1305.0	0.97423	0.025769	7.56395	7.36331	-2.61106	19.17343	31.52108	1.22663	0.81524	96.74249	115.43811	35.88665	0.34789	8.54885	93582.63261	0.90101	8.23076E-5	1849.25623	44832.424	291.1864	14540.544
1300.14	1.0	-2.9539E-9	7.57225	7.35524	-2.71783	18.93874	31.54057	1.2221	0.81826	108.93292	115.54528	40.5597	0.34287	 	111378.0402	 	6.89441E-5	 	44155.323	 	15021.761
1300.0	1.0	0.0	7.57237	7.35512	-2.71936	18.93649	31.53859	1.22206	0.81829	108.94773	115.55884	40.5653	0.34287	 	111591.478	 	6.88059E-5	 	44149.75364	136.53407	 
1295.0	1.0	0.0	7.57513	7.35244	-2.7548	18.90849	31.46396	1.22107	0.81895	109.42042	115.96241	40.74533	0.34274	 	119348.0627	 	6.41297E-5	 	43957.3152	38.48769	 
1290.0	1.0	0.0	7.57789	7.34977	-2.79016	18.88051	31.38933	1.22007	0.81963	109.89251	116.36467	40.92516	0.3426	 	127698.6834	 	5.97449E-5	 	43765.2422	38.4146	 
1285.0	1.0	0.0	7.58064	7.3471	-2.82544	18.85253	31.3147	1.21907	0.8203	110.364	116.76562	41.1048	0.34247	 	136692.9025	 	5.56352E-5	 	43573.53384	38.34167	 
1280.0	1.0	0.0	7.58338	7.34444	-2.86064	18.82458	31.24007	1.21806	0.82098	110.83488	117.16525	41.28426	0.34234	 	146384.7485	 	5.1785E-5	 	43382.18934	38.2689	 
1275.0	1.0	0.0	7.58613	7.34178	-2.89576	18.79663	31.16544	1.21704	0.82166	111.30516	117.56358	41.46352	0.34221	 	156833.1482	 	4.81795E-5	 	43191.20789	38.19629	 
1270.0	1.0	0.0	7.58887	7.33913	-2.9308	18.7687	31.09081	1.21602	0.82235	111.77484	117.96061	41.6426	0.34207	 	168102.4031	 	4.48044E-5	 	43000.58872	38.12383	 
1265.0	1.0	0.0	7.5916	7.33649	-2.96576	18.74078	31.01618	1.215	0.82304	112.24392	118.35633	41.82149	0.34194	 	180262.7148	 	4.16466E-5	 	42810.33104	38.05154	 
1260.0	1.0	0.0	7.59433	7.33385	-3.00064	18.71288	30.94155	1.21397	0.82374	112.71239	118.75076	42.00019	0.34181	 	193390.7661	 	3.86933E-5	 	42620.43405	37.9794	 
1255.0	1.0	0.0	7.59705	7.33122	-3.03544	18.68499	30.86691	1.21294	0.82444	113.18027	119.1439	42.1787	0.34168	 	207570.3622	 	3.59325E-5	 	42430.89695	37.90742	 
1250.0	1.0	0.0	7.59978	7.3286	-3.07015	18.65711	30.79228	1.2119	0.82515	113.64754	119.53575	42.35702	0.34154	 	222893.1403	 	3.33528E-5	 	42241.71898	37.83559	 
1245.0	1.0	0.0	7.60249	7.32598	-3.10479	18.62925	30.71765	1.21086	0.82586	114.11421	119.92631	42.53515	0.34141	 	239459.3539	 	3.09435E-5	 	42052.89933	37.76393	 
1240.0	1.0	0.0	7.6052	7.32337	-3.13935	18.6014	30.64301	1.20981	0.82658	114.58028	120.31559	42.71309	0.34128	 	257378.7418	 	2.86943E-5	 	41864.4372	37.69243	 
1235.0	1.0	0.0	7.60791	7.32076	-3.17382	18.57356	30.56838	1.20875	0.8273	115.04575	120.7036	42.89085	0.34115	 	276771.4892	 	2.65956E-5	 	41676.33183	37.62107	 
1230.0	1.0	0.0	7.61062	7.31816	-3.20822	18.54574	30.49375	1.2077	0.82802	115.51062	121.09033	43.06842	0.34101	 	297769.294	 	2.46382E-5	 	41488.58242	37.54988	 
1225.0	1.0	0.0	7.61332	7.31557	-3.24253	18.51794	30.41911	1.20663	0.82875	115.97489	121.47579	43.24579	0.34088	 	320516.5484	 	2.28135E-5	 	41301.18817	37.47885	 
1220.0	1.0	0.0	7.61601	7.31298	-3.27676	18.49015	30.34448	1.20556	0.82949	116.43857	121.85998	43.42298	0.34075	 	345171.6495	 	2.11132E-5	 	41114.1483	37.40797	 
1215.0	1.0	0.0	7.6187	7.31039	-3.31092	18.46237	30.26984	1.20449	0.83023	116.90164	122.2429	43.59998	0.34062	 	371908.4549	 	1.95298E-5	 	40927.46201	37.33726	 
1210.0	1.0	0.0	7.62139	7.30782	-3.34499	18.4346	30.1952	1.20341	0.83097	117.36411	122.62457	43.77679	0.34048	 	400917.8988	 	1.80558E-5	 	40741.12854	37.2667	 
1205.0	1.0	0.0	7.62407	7.30525	-3.37899	18.40685	30.12057	1.20232	0.83172	117.82598	123.00497	43.95342	0.34035	 	432409.7887	 	1.66844E-5	 	40555.14708	37.19629	 
1200.0	1.0	0.0	7.62674	7.30268	-3.4129	18.37912	30.04593	1.20123	0.83248	118.28726	123.38413	44.12985	0.34022	 	466614.8026	 	1.5409E-5	 	40369.51685	37.12605	 
1195.0	1.0	0.0	7.62942	7.30013	-3.44674	18.3514	29.97129	1.20014	0.83324	118.74794	123.76203	44.3061	0.34009	 	503786.7128	 	1.42236E-5	 	40184.23706	37.05596	 
1190.0	1.0	0.0	7.63209	7.29757	-3.48049	18.32369	29.89665	1.19904	0.834	119.20802	124.13869	44.48216	0.33995	 	544204.8607	 	1.31224E-5	 	39999.30693	36.98603	 
1185.0	1.0	0.0	7.63475	7.29503	-3.51416	18.296	29.82202	1.19793	0.83477	119.6675	124.5141	44.65803	0.33982	 	588176.9146	 	1.20999E-5	 	39814.72567	36.91625	 
1180.0	1.0	0.0	7.63741	7.29249	-3.54776	18.26832	29.74738	1.19682	0.83555	120.12638	124.88827	44.83371	0.33969	 	636041.9447	 	1.11509E-5	 	39630.49248	36.84664	 
1175.0	1.0	0.0	7.64006	7.28995	-3.58127	18.24065	29.67274	1.1957	0.83633	120.58467	125.2612	45.0092	0.33956	 	688173.8528	 	1.02707E-5	 	39446.6066	36.77718	 
1170.0	1.0	0.0	7.64271	7.28743	-3.61471	18.213	29.5981	1.19458	0.83712	121.04236	125.6329	45.18451	0.33942	 	744985.2014	 	9.45476E-6	 	39263.06722	36.70788	 
1165.0	1.0	0.0	7.64536	7.2849	-3.64806	18.18537	29.52346	1.19345	0.83791	121.49945	126.00337	45.35962	0.33929	 	806931.4912	 	8.6987E-6	 	39079.87356	36.63873	 
1160.0	1.0	0.0	7.648	7.28239	-3.68134	18.15774	29.44882	1.19231	0.83871	121.95595	126.37261	45.53455	0.33916	 	874515.9413	 	7.99854E-6	 	38897.02485	36.56974	 
1155.0	1.0	0.0	7.65064	7.27988	-3.71453	18.13014	29.37418	1.19117	0.83951	122.41184	126.74062	45.70929	0.33903	 	948294.8371	 	7.3505E-6	 	38714.52029	36.50091	 
1150.0	1.0	0.0	7.65327	7.27737	-3.74765	18.10255	29.29954	1.19002	0.84032	122.86715	127.10742	45.88385	0.33889	 	1028883.516	 	6.75105E-6	 	38532.35909	36.43224	 
1145.0	1.0	0.0	7.6559	7.27488	-3.78069	18.07497	29.22489	1.18887	0.84113	123.32185	127.473	46.05821	0.33876	 	1116963.07	 	6.19684E-6	 	38350.5405	36.36372	 
1140.0	1.0	0.0	7.65852	7.27238	-3.81364	18.0474	29.15025	1.18771	0.84195	123.77597	127.83736	46.23239	0.33863	 	1213287.862	 	5.68475E-6	 	38169.06369	36.29536	 
1135.0	1.0	0.0	7.66114	7.2699	-3.84652	18.01986	29.07561	1.18655	0.84278	124.22948	128.20051	46.40637	0.3385	 	1318693.949	 	5.21185E-6	 	37987.9279	36.22716	 
1130.0	1.0	0.0	7.66375	7.26742	-3.87932	17.99232	29.00096	1.18538	0.84361	124.6824	128.56246	46.58017	0.33836	 	1434108.545	 	4.77539E-6	 	37807.13235	36.15911	 
1125.0	1.0	0.0	7.66636	7.26495	-3.91204	17.9648	28.92632	1.1842	0.84445	125.13473	128.9232	46.75379	0.33823	 	1560560.642	 	4.3728E-6	 	37626.67624	36.09122	 
1120.61	1.0	0.0	7.66865	7.26278	-3.94069	17.94067	28.86082	1.18317	0.84519	125.53118	129.23878	46.90599	0.33811	 	1681523.838	 	4.0455E-6	 	37468.59316	 	 
1120.0	1.0	0.0	7.66898	7.26246	-3.94485	17.93674	28.85192	1.18301	0.8453	125.5899	129.2852	46.92855	0.3381	 	1699493.919	 	4.00097E-6	 	37445.67322	36.20061	 
1115.0	1.0	0.0	7.67169	7.2599	-3.97875	17.90471	28.77925	1.18174	0.84621	126.06879	129.66335	47.11254	0.33795	 	1854247.807	 	3.65389E-6	 	37258.77487	37.37967	 
1110.0	1.0	0.0	7.67439	7.25735	-4.01253	17.87282	28.70652	1.18047	0.84712	126.54634	130.03976	47.29606	0.33781	 	2024278.311	 	3.33492E-6	 	37072.42027	37.27092	 
1105.0	1.0	0.0	7.67708	7.2548	-4.04618	17.84107	28.63372	1.17919	0.84804	127.02257	130.41442	47.47911	0.33767	 	2211210.828	 	3.04196E-6	 	36886.60444	37.16317	 
1100.0	1.0	0.0	7.67976	7.25227	-4.0797	17.80945	28.56085	1.17791	0.84896	127.4975	130.78736	47.6617	0.33753	 	2416855.982	 	2.77303E-6	 	36701.32248	37.05639	 
1095.0	1.0	0.0	7.68244	7.24974	-4.1131	17.77797	28.48793	1.17663	0.84989	127.97112	131.15859	47.84383	0.33738	 	2643232.514	 	2.5263E-6	 	36516.56949	36.9506	 
1090.0	1.0	0.0	7.6851	7.24723	-4.14638	17.74661	28.41494	1.17534	0.85082	128.44347	131.52811	48.02551	0.33724	 	2892592.402	 	2.30008E-6	 	36332.34062	36.84577	 
1085.0	1.0	0.0	7.68776	7.24472	-4.17954	17.71538	28.34189	1.17405	0.85176	128.91454	131.89594	48.20674	0.3371	 	3167450.051	 	2.09279E-6	 	36148.63103	36.74192	 
1080.0	1.0	0.0	7.69042	7.24222	-4.21257	17.68427	28.26879	1.17275	0.8527	129.38435	132.2621	48.38753	0.33696	 	3470614.346	 	1.90295E-6	 	35965.43596	36.63901	 
1075.0	1.0	0.0	7.69306	7.23973	-4.24549	17.65329	28.19562	1.17145	0.85365	129.85291	132.62659	48.56788	0.33682	 	3805226.05	 	1.7292E-6	 	35782.75063	36.53707	 
1070.0	1.0	0.0	7.6957	7.23725	-4.27829	17.62242	28.1224	1.17014	0.8546	130.32024	132.98943	48.74779	0.33668	 	4174798.932	 	1.57027E-6	 	35600.57036	36.43605	 
1065.0	1.0	0.0	7.69832	7.23478	-4.31097	17.59168	28.04913	1.16883	0.85556	130.78634	133.35064	48.92727	0.33654	 	4583267.87	 	1.425E-6	 	35418.89045	36.33598	 
1060.0	1.0	0.0	7.70094	7.23232	-4.34353	17.56104	27.9758	1.16752	0.85652	131.25124	133.71021	49.10633	0.3364	 	5035041.604	 	1.2923E-6	 	35237.70626	36.23684	 
1055.0	1.0	0.0	7.70356	7.22987	-4.37598	17.53052	27.90242	1.1662	0.85749	131.71493	134.06818	49.28496	0.33626	 	5535064.578	 	1.17115E-6	 	35057.0132	36.13861	 
1050.0	1.0	0.0	7.70616	7.22742	-4.40832	17.5001	27.82899	1.16487	0.85846	132.17744	134.42454	49.46318	0.33612	 	6088885.818	 	1.06062E-6	 	34876.80671	36.0413	 
1045.0	1.0	0.0	7.70876	7.22499	-4.44054	17.46979	27.75551	1.16354	0.85945	132.63878	134.77931	49.64099	0.33598	 	6702737.703	 	9.59841E-7	 	34697.08227	35.94489	 
1040.0	1.0	0.0	7.71135	7.22256	-4.47266	17.43959	27.68198	1.16221	0.86043	133.09895	135.1325	49.81839	0.33584	 	7383625.635	 	8.68023E-7	 	34517.83538	35.84938	 
1035.0	1.0	0.0	7.71394	7.22014	-4.50466	17.40949	27.60841	1.16087	0.86143	133.55798	135.48413	49.99539	0.3357	 	8139430.622	 	7.84423E-7	 	34339.06162	35.75475	 
1030.0	1.0	0.0	7.71651	7.21773	-4.53655	17.37949	27.53479	1.15952	0.86242	134.01586	135.83421	50.17199	0.33556	 	8979025.492	 	7.08357E-7	 	34160.75657	35.66101	 
1025.0	1.0	0.0	7.71908	7.21532	-4.56834	17.34958	27.46112	1.15817	0.86343	134.47262	136.18274	50.3482	0.33543	 	9912408.125	 	6.39194E-7	 	33982.9159	35.56813	 
1020.0	1.0	0.0	7.72165	7.21293	-4.60001	17.31978	27.38741	1.15682	0.86444	134.92827	136.52975	50.52402	0.33529	 	1.09508529E7	 	5.76352E-7	 	33805.53527	35.47612	 
1015.0	1.0	0.0	7.7242	7.21054	-4.63159	17.29006	27.31366	1.15545	0.86546	135.38282	136.87524	50.69946	0.33515	 	1.210708546E7	 	5.19294E-7	 	33628.61044	35.38497	 
1010.0	1.0	0.0	7.72675	7.20816	-4.66305	17.26044	27.23987	1.15409	0.86649	135.83628	137.21923	50.87451	0.33501	 	1.339548013E7	 	4.67526E-7	 	33452.13717	35.29466	 
1005.0	1.0	0.0	7.7293	7.20579	-4.69441	17.2309	27.16603	1.15271	0.86752	136.28866	137.56172	51.04919	0.33488	 	1.483228879E7	 	4.20591E-7	 	33276.11128	35.20518	 
1000.0	1.0	0.0	7.73183	7.20343	-4.72567	17.20146	27.09216	1.15134	0.86856	136.73997	137.90273	51.2235	0.33474	 	1.643590215E7	 	3.7807E-7	 	33100.52861	35.11653	 
995.0	1.0	0.0	7.73436	7.20107	-4.75683	17.17209	27.01825	1.14995	0.8696	137.19023	138.24227	51.39744	0.3346	 	1.822714727E7	 	3.39577E-7	 	32925.38513	35.0287	 
990.0	1.0	0.0	7.73688	7.19873	-4.78788	17.14281	26.9443	1.14856	0.87065	137.63945	138.58035	51.57103	0.33446	 	2.022963399E7	 	3.04757E-7	 	32750.67674	34.94168	 
985.0	1.0	0.0	7.7394	7.19638	-4.81884	17.11362	26.87032	1.14716	0.87171	138.08763	138.91699	51.74425	0.33433	 	2.247014997E7	 	2.73283E-7	 	32576.39948	34.85545	 
980.0	1.0	0.0	7.74191	7.19405	-4.84969	17.0845	26.7963	1.14576	0.87278	138.5348	139.25219	51.91712	0.33419	 	2.497911472E7	 	2.44857E-7	 	32402.54939	34.77002	 
975.0	1.0	0.0	7.74441	7.19173	-4.88044	17.05545	26.72225	1.14435	0.87386	138.98096	139.58596	52.08964	0.33406	 	2.779110419E7	 	2.19204E-7	 	32229.12258	34.68536	 
970.0	1.0	0.0	7.74691	7.18941	-4.9111	17.02649	26.64816	1.14294	0.87494	139.42611	139.91832	52.26181	0.33392	 	3.094545852E7	 	1.96071E-7	 	32056.11519	34.60148	 
965.0	1.0	0.0	7.7494	7.1871	-4.94166	16.99759	26.57404	1.14152	0.87603	139.87029	140.24928	52.43365	0.33378	 	3.448697391E7	 	1.75229E-7	 	31883.52343	34.51835	 
960.0	1.0	0.0	7.75188	7.1848	-4.97212	16.96877	26.4999	1.14009	0.87713	140.31348	140.57884	52.60514	0.33365	 	3.846671508E7	 	1.56465E-7	 	31711.34354	34.43598	 
955.0	1.0	0.0	7.75436	7.1825	-5.00248	16.94002	26.42572	1.13865	0.87823	140.75571	140.90703	52.77631	0.33351	 	4.29429424E7	 	1.39587E-7	 	31539.57183	34.35434	 
950.0	1.0	0.0	7.75683	7.18021	-5.03275	16.91134	26.35151	1.13721	0.87935	141.19699	141.23384	52.94714	0.33338	 	4.798219658E7	 	1.24419E-7	 	31368.20466	34.27343	 
945.0	1.0	0.0	7.7593	7.17793	-5.06293	16.88272	26.27728	1.13576	0.88047	141.63732	141.5593	53.11765	0.33324	 	5.366054534E7	 	1.10798E-7	 	31197.23841	34.19325	 
940.0	1.0	0.0	7.76176	7.17566	-5.09301	16.85416	26.20301	1.1343	0.8816	142.07671	141.8834	53.28784	0.33311	 	6.00650354E7	 	9.85779E-8	 	31026.66953	34.11377	 
935.0	1.0	0.0	7.76421	7.17339	-5.123	16.82567	26.12873	1.13284	0.88274	142.51518	142.20617	53.45771	0.33297	 	6.729538121E7	 	8.76238E-8	 	30856.49456	34.035	 
930.0	1.0	0.0	7.76666	7.17113	-5.15289	16.79724	26.05441	1.13137	0.88388	142.95274	142.52761	53.62727	0.33284	 	7.54659219E7	 	7.78136E-8	 	30686.71003	33.95691	 
925.0	1.0	0.0	7.7691	7.16887	-5.1827	16.76887	25.98008	1.12989	0.88504	143.3894	142.84773	53.79652	0.3327	 	8.470789925E7	 	6.90357E-8	 	30517.31254	33.8795	 
920.0	1.0	0.0	7.77154	7.16663	-5.21241	16.74056	25.90571	1.12841	0.88621	143.82516	143.16653	53.96547	0.33257	 	9.51721239E7	 	6.11888E-8	 	30348.29879	33.80275	 
915.0	1.0	0.0	7.77396	7.16439	-5.24203	16.71231	25.83133	1.12691	0.88738	144.26003	143.48404	54.13411	0.33243	 	1.070320701E8	 	5.41806E-8	 	30179.66546	33.72667	 
910.0	1.0	0.0	7.77639	7.16216	-5.27156	16.68411	25.75692	1.12541	0.88856	144.69403	143.80026	54.30245	0.3323	 	1.204874883E8	 	4.79275E-8	 	30011.40933	33.65123	 
905.0	1.0	0.0	7.77881	7.15993	-5.301	16.65596	25.68249	1.1239	0.88976	145.12717	144.1152	54.4705	0.33216	 	1.357686522E8	 	4.23534E-8	 	29843.52723	33.57642	 
900.0	1.0	0.0	7.78122	7.15771	-5.33036	16.62787	25.60805	1.12239	0.89096	145.55944	144.42887	54.63825	0.33203	 	1.531413092E8	 	3.73893E-8	 	29676.016	33.50224	 
895.0	1.0	0.0	7.78362	7.1555	-5.35962	16.59982	25.53358	1.12086	0.89217	145.99087	144.74127	54.80572	0.33189	 	1.729124732E8	 	3.2973E-8	 	29508.87261	33.42868	 
890.0	1.0	0.0	7.78602	7.15329	-5.3888	16.57183	25.45909	1.11933	0.89339	146.42146	145.05242	54.9729	0.33176	 	1.954372561E8	 	2.90479E-8	 	29342.094	33.35572	 
885.0	1.0	0.0	7.78842	7.15109	-5.41789	16.54388	25.38458	1.11779	0.89462	146.85122	145.36233	55.1398	0.33163	 	2.211268527E8	 	2.55629E-8	 	29175.67724	33.28335	 
880.0	1.0	0.0	7.79081	7.1489	-5.44689	16.51598	25.31006	1.11624	0.89586	147.28015	145.671	55.30642	0.33149	 	2.504579592E8	 	2.24718E-8	 	29009.61937	33.21157	 
875.0	1.0	0.0	7.79319	7.14671	-5.47581	16.48812	25.23552	1.11469	0.89711	147.70827	145.97844	55.47277	0.33136	 	2.839838564E8	 	1.97329E-8	 	28843.91757	33.14036	 
870.0	1.0	0.0	7.79557	7.14453	-5.50463	16.46031	25.16096	1.11312	0.89838	148.13558	146.28467	55.63884	0.33122	 	3.22347458E8	 	1.73087E-8	 	28678.56902	33.06971	 
865.0	1.0	0.0	7.79794	7.14236	-5.53338	16.43255	25.08639	1.11155	0.89965	148.5621	146.58969	55.80465	0.33109	 	3.662967681E8	 	1.51654E-8	 	28513.57094	32.99962	 
860.0	1.0	0.0	7.80031	7.14019	-5.56204	16.40482	25.0118	1.10996	0.90093	148.98782	146.8935	55.97018	0.33096	 	4.167030654E8	 	1.32723E-8	 	28348.92063	32.93006	 
855.0	1.0	0.0	7.80267	7.13803	-5.59061	16.37713	24.93719	1.10837	0.90222	149.41276	147.19612	56.13545	0.33082	 	4.745825033E8	 	1.16022E-8	 	28184.61546	32.86103	 
850.0	1.0	0.0	7.80502	7.13588	-5.6191	16.34949	24.86258	1.10677	0.90353	149.83692	147.49755	56.30046	0.33069	 	5.411217296E8	 	1.01305E-8	 	28020.65282	32.79253	 
845.0	1.0	0.0	7.80736	7.13374	-5.64738	16.32246	24.78772	1.10517	0.90484	150.25657	147.79497	56.46377	0.33056	 	6.175938081E8	 	8.83657E-9	 	27861.22191	31.88618	 
