T (C)	Fraction solid (wt)-TOTAL	Fraction liquid (wt)-LIQUID	Density (g/(cm)^3)-TOTAL	Molar volume (cm^3)-TOTAL	Volume change (%)-  	Average expansion coeff. (10e-6 1/K)-  	Thermal conductivity (W/(m*K))-TOTAL	Electrical resistivity (10e-6 Ohm*m)-TOTAL	Electrical conductivity (10e6 1/(Ohm*m))-TOTAL	Young's modulus (GPa)-TOTAL	Bulk modulus (GPa)-TOTAL	Shear modulus(GPa)-TOTAL	Poisson's ratio-TOTAL	Liquid viscosity (mPa s)-  	Total viscosity (mPa s)-  	Liquid diffusivity (10e-9 (m^2)/s)-  	Total diffusivity (10e-9 (m^2)/s)-  	Surface Tension (mN/m)-  	Enthalpy (J/mole)-TOTAL	Specific heat (J/(mole K))-TOTAL	Latent heat (J/mole)-TOTAL
1400.0	0.00313	0.99687	7.41054	8.02507	0.0	35.56124	31.96197	1.28253	0.77971	2.01032E-8	121.84845	6.7041E-9	0.49932	6.83931	6.83931	1.19401	1.19401	1779.34755	40141.504	 	0.0
1395.0	0.00339	0.99661	7.41518	8.02001	-0.0631288	35.5149	31.86859	1.28244	0.77976	2.75704E-8	122.02852	9.19464E-9	0.49926	6.91599	6.91599	1.17725	1.17725	1783.47485	39930.594	42.182	14.126
1390.0	0.00364	0.99636	7.41981	8.01497	-0.12587	35.4693	31.77534	1.28235	0.77982	3.6816E-8	122.20827	1.22785E-8	0.4992	6.99396	6.99396	1.16063	1.16063	1787.62544	39720.309	42.057	28.048
1385.0	0.00389	0.99611	7.42443	8.01006	-0.18706	35.42772	31.68232	1.28225	0.77988	4.80434E-8	122.38914	1.60235E-8	0.49915	7.07321	7.07321	1.14418	1.14418	1791.79582	39510.643	41.9332	41.768
1380.0	0.00413	0.99587	7.42903	8.00507	-0.24933	35.38281	31.5891	1.28216	0.77994	6.14719E-8	122.56728	2.0503E-8	0.4991	7.15384	7.15384	1.12787	1.12787	1795.99174	39301.595	41.8096	55.287
1375.0	0.00438	0.99562	7.43362	8.00016	-0.31051	35.34062	31.49618	1.28205	0.78	7.73044E-8	122.74613	2.57845E-8	0.49905	7.2358	7.2358	1.11172	1.11172	1800.20727	39093.159	41.6872	68.607
1370.0	0.00461	0.99539	7.43818	7.99522	-0.37198	35.29733	31.40321	1.28194	0.78006	9.57427E-8	122.92342	3.19356E-8	0.49899	7.31915	7.31915	1.09573	1.09573	1804.44512	38885.332	41.5654	81.727
1365.0	0.00485	0.99515	7.44273	7.99033	-0.43291	35.25522	31.31034	1.28183	0.78013	1.16983E-7	123.10045	3.90217E-8	0.49894	7.40394	7.40394	1.07989	1.07989	1808.70262	38678.11	41.4444	94.65
1360.0	0.00508	0.99492	7.44727	7.98541	-0.4942	35.21178	31.21742	1.28173	0.7802	1.41215E-7	123.27599	4.71066E-8	0.49889	7.49019	7.49019	1.06419	1.06419	1812.98137	38471.489	41.3242	107.378
1355.0	0.00531	0.99469	7.4518	7.98061	-0.5541	35.17202	31.12478	1.28161	0.78027	1.68602E-7	123.45251	5.62441E-8	0.49884	7.57792	7.57792	1.04865	1.04865	1817.27628	38265.465	41.2048	119.91
1350.0	0.00553	0.99447	7.4563	7.97578	-0.61432	35.13103	31.03207	1.28149	0.78034	1.99353E-7	123.62736	6.65044E-8	0.49879	7.66717	7.66717	1.03326	1.03326	1821.59106	38060.035	41.086	132.249
1345.0	0.00575	0.99425	7.46087	7.97095	-0.67442	35.09006	30.93959	1.28136	0.78042	2.33598E-7	123.80307	7.79311E-8	0.49875	7.75812	7.75812	1.018	1.018	1825.92398	37855.195	40.968	144.392
1340.0	0.00597	0.99403	7.46534	7.96611	-0.73475	35.04812	30.84701	1.28123	0.7805	2.71494E-7	123.97583	9.05767E-8	0.49869	7.85053	7.85053	1.00291	1.00291	1830.27532	37650.94	40.851	156.345
1335.0	0.00619	0.99381	7.46979	7.96131	-0.79452	35.00749	30.75448	1.2811	0.78058	3.13174E-7	124.14842	1.04486E-7	0.49865	7.94453	7.94453	0.98797	0.98797	1834.64238	37447.268	40.7344	168.108
1334.99	0.00619	0.99381	7.4698	7.96131	-0.79462	35.0074	30.75433	1.2811	0.78058	3.13237E-7	124.14865	1.04507E-7	0.49865	7.94468	8.00894	0.98795	0.98002	1834.64907	37446.957	40.86728	168.128
1330.0	0.13219	0.86781	7.51946	7.90876	-1.44938	33.22356	31.08471	1.26355	0.79142	0.0253158	128.53788	0.00853332	0.48335	8.05986	13.93244	0.97081	0.56161	1838.31777	35352.77948	419.47394	2070.127
1325.0	0.23418	0.76582	7.56055	7.86579	-1.98487	31.77688	31.34847	1.24901	0.80063	0.28085	132.30869	0.095477	0.47077	8.1772	56.26521	0.95389	0.13863	1842.00593	33632.44253	344.06739	3598.121
1320.0	0.31803	0.68197	7.59502	7.8301	-2.42958	30.58696	31.56083	1.23673	0.80859	1.01095	135.43538	0.34615	0.46028	8.29664	174.455	0.93722	0.0445718	1845.70398	32195.08849	287.47081	4843.543
1315.0	0.388	0.612	7.62442	7.79998	-2.80487	29.59352	31.73297	1.22616	0.81555	2.32601	138.07263	0.80129	0.45141	8.41853	392.13407	0.92075	0.0197671	1849.40842	30973.89902	244.23789	5873.212
1310.0	0.45694	0.54306	7.65246	7.7714	-3.16106	28.64918	31.90643	1.21565	0.8226	4.62205	140.74241	1.60207	0.44252	8.54818	784.45714	0.90393	0.00985008	1852.96977	29762.02664	242.37448	6893.97
1305.0	0.53894	0.46106	7.68336	7.74014	-3.55061	27.59783	32.13315	1.20326	0.83107	9.25734	143.99782	3.2329	0.43174	8.69302	1592.57313	0.88606	0.00483655	1856.14075	28339.1809	284.56915	8126.105
1300.0	0.60337	0.39663	7.70826	7.71509	-3.86275	26.77028	32.30366	1.19312	0.83814	14.91931	146.58129	5.24161	0.42316	8.83798	2637.26799	0.86877	0.0029114	1859.30791	27194.35033	228.96611	9080.628
1295.0	0.65501	0.34499	7.72881	7.69446	-4.11973	26.10224	32.43017	1.18469	0.8441	21.13686	148.67682	7.46255	0.4162	8.98357	3869.33454	0.85197	0.00197805	1862.47632	26250.28552	188.81296	9834.783
1290.0	0.69712	0.30288	7.74606	7.67723	-4.3345	25.55648	32.52243	1.17756	0.84921	27.55321	150.41098	9.76753	0.41045	9.12978	5251.23615	0.83565	0.00145287	1865.63585	25454.51704	159.1537	10441.038
1285.0	0.73197	0.26803	7.7608	7.6625	-4.51804	25.10112	32.58749	1.17145	0.85364	33.93218	151.87039	12.07007	0.40563	9.27695	6758.37666	0.81977	0.00112526	1868.79187	24770.58542	136.78632	10935.848
1280.0	0.76119	0.23881	7.77357	7.64973	-4.67715	24.71653	32.63076	1.16614	0.85753	40.12489	153.11853	14.31454	0.40154	9.4253	8376.4922	0.80428	9.04978E-4	1871.94158	24172.33819	119.64945	11345.105
1275.0	0.78596	0.21404	7.78479	7.6385	-4.81707	24.38755	32.65637	1.16148	0.86097	46.04953	154.2008	16.46945	0.39803	9.57495	10099.60212	0.78916	7.48162E-4	1875.08121	23640.96111	106.27542	11687.577
1270.0	0.80718	0.19282	7.79478	7.6285	-4.94166	24.10297	32.66732	1.15734	0.86405	51.6604	155.15068	18.51657	0.39498	9.72624	11925.70892	0.77437	6.31554E-4	1878.21331	23162.90983	95.61026	11977.125
1265.0	0.8255	0.1745	7.80375	7.61951	-5.05374	23.85466	32.66622	1.15363	0.86683	56.94512	155.99402	20.44999	0.3923	9.87917	13859.09293	0.75991	5.4169E-4	1881.33403	22727.76438	87.02909	12224.168
1260.0	0.84147	0.15853	7.81188	7.61131	-5.15595	23.63493	32.65493	1.15028	0.86936	61.90402	156.74973	22.26869	0.38993	10.03406	15905.1562	0.74575	4.70472E-4	1884.44963	22327.571	80.03868	12436.656
1255.0	0.85547	0.14453	7.81931	7.6038	-5.24948	23.44033	32.63504	1.14722	0.87167	66.54512	157.43319	23.9746	0.38783	10.19077	18071.89854	0.73189	4.12714E-4	1887.55105	21956.16877	74.28045	12620.746
1250.0	0.86783	0.13217	7.82617	7.59687	-5.3358	23.26669	32.60788	1.14442	0.8738	70.88739	158.05697	25.57388	0.38593	10.34971	20370.59809	0.71829	3.64943E-4	1890.63691	21608.7248	69.48879	12781.268
1245.0	0.87879	0.12121	7.83253	7.59041	-5.41629	23.10987	32.57445	1.14184	0.87578	74.95032	158.6299	27.07306	0.38422	10.5109	22812.91041	0.70496	3.24803E-4	1893.71267	21281.40328	65.4643	12922.057
1240.0	0.88858	0.11142	7.83847	7.58437	-5.49161	22.96801	32.53559	1.13943	0.87763	78.75148	159.15984	28.47806	0.38267	10.67449	25411.78091	0.69187	2.90625E-4	1896.77377	20971.12324	62.05601	13046.187
1235.0	0.89756	0.10244	7.84428	7.57846	-5.5652	22.83044	32.49101	1.13723	0.87933	82.38205	159.65769	29.8222	0.38122	10.82902	28203.6728	0.67974	2.60991E-4	1899.80759	20669.17097	60.39045	13162.372
1230.0	0.90582	0.0941777	7.85587	7.57012	-5.66921	22.59524	32.21153	1.14329	0.87467	86.20653	159.84268	31.25254	0.37919	11.01764	31688.85234	0.66589	2.31517E-4	1902.83559	20250.78258	83.67768	13285.617
1225.0	0.91322	0.0867823	7.86945	7.56098	-5.78303	22.32686	31.83835	1.15284	0.86742	89.92881	159.85742	32.65383	0.377	11.21764	35741.77639	0.65184	2.04581E-4	1905.85136	19791.13377	91.92976	13397.757
1220.0	0.91983	0.0801676	7.88195	7.55226	-5.89173	22.07258	31.48406	1.16193	0.86064	80.10315	159.84702	29.12892	0.37498	11.42116	40169.435	0.63809	1.81424E-4	1908.85401	19351.19528	87.9877	13496.906
1215.0	0.92577	0.0742251	7.89346	7.54391	-5.99577	21.83116	31.14531	1.17063	0.85424	85.43257	159.8181	31.10947	0.3731	11.62851	45010.99767	0.62461	1.61367E-4	1911.83825	18928.70341	84.49837	13585.011
1210.0	0.93114	0.0688581	7.90408	7.5359	-6.09558	21.60131	30.82279	1.17891	0.84824	91.05951	159.77537	33.20079	0.37135	11.83948	50308.76936	0.61142	1.43889E-4	1914.80317	18521.76492	81.3877	13663.664
1205.0	0.93601	0.0639909	7.91389	7.52819	-6.19161	21.38181	30.51508	1.18678	0.84262	96.06262	159.72258	35.06675	0.36971	12.05436	56109.20119	0.5985	1.28579E-4	1917.75029	18128.78535	78.59591	13734.174
1200.0	0.94044	0.0595593	7.92297	7.52076	-6.2842	21.17157	30.22096	1.19428	0.83733	100.32582	159.66284	36.66396	0.36818	12.27332	62463.69967	0.58583	1.15108E-4	1920.68058	17748.40423	76.07622	13797.629
1195.0	0.94449	0.0555083	7.93138	7.51359	-6.37352	20.97025	29.93941	1.20142	0.83235	103.96419	159.59841	38.03351	0.36674	12.49615	69428.08824	0.57343	1.0321E-4	1923.58747	17379.45651	73.78954	13854.942
1190.0	0.94821	0.0517935	7.93967	7.50651	-6.46182	20.77056	29.6618	1.20853	0.82745	107.13569	159.5248	39.23302	0.36538	12.72321	77103.6918	0.56128	9.26191E-5	1926.47522	17014.82087	72.92713	13906.877
1185.0	0.95168	0.0483193	7.94711	7.49976	-6.54597	20.58278	29.3982	1.2152	0.82291	109.93629	159.45283	40.29653	0.36409	12.93151	85494.06812	0.55035	8.3244E-5	1929.39461	16660.57453	70.84927	13958.831
1180.0	0.95503	0.0449701	7.95436	7.49317	-6.62798	20.40049	29.13755	1.22187	0.81842	112.50012	159.37663	41.27382	0.36285	13.10017	94731.54233	0.5414	7.48691E-5	1932.38034	16305.88643	70.93762	14015.888
1175.0	0.95812	0.0418821	7.96111	7.48682	-6.70715	20.22604	28.88817	1.22817	0.81422	114.82607	159.30308	42.16338	0.36168	13.27438	104871.4101	0.53246	6.73974E-5	1935.34251	15960.64909	69.04747	14067.94
1170.0	0.96097	0.0390264	7.96741	7.48068	-6.78368	20.0589	28.64912	1.23415	0.81028	116.95942	159.23275	42.98168	0.36057	13.45455	116005.1021	0.52351	6.07185E-5	1938.27825	15624.10676	67.30847	14115.546
1165.0	0.96362	0.0363785	7.97332	7.47474	-6.85774	19.89858	28.41955	1.2398	0.80658	118.93554	159.16621	43.7416	0.35952	13.6405	128235.5298	0.51459	5.47372E-5	1941.18247	15295.58858	65.70364	14159.187
1160.0	0.96608	0.0339181	7.97886	7.46897	-6.92963	19.74411	28.19871	1.24517	0.8031	120.77854	159.10363	44.45196	0.35853	13.83277	141675.0907	0.50567	4.93725E-5	1944.06385	14974.49921	64.21787	14199.282
1155.0	0.96837	0.031626	7.98407	7.46336	-6.99945	19.5953	27.98596	1.25026	0.79983	122.50774	159.04555	45.11982	0.35758	14.03097	156449.5879	0.49679	4.45539E-5	1946.91362	14660.30406	62.83903	14236.194
1150.0	0.97051	0.0294884	7.98898	7.45791	-7.06737	19.45163	27.78073	1.25508	0.79676	124.13719	158.99197	45.75032	0.35668	14.23553	172696.7347	0.48794	4.0221E-5	1949.7329	14352.52574	61.55566	14270.244
1145.0	0.97251	0.0274901	7.99363	7.4526	-7.13353	19.31268	27.58246	1.25967	0.79386	125.6787	158.94312	46.34781	0.35582	14.44668	190569.807	0.47912	3.63207E-5	1952.52202	14050.73054	60.35904	14301.713
1140.0	0.97447	0.0255279	7.99803	7.44735	-7.19895	19.17501	27.39273	1.26392	0.79119	127.14467	158.90487	46.91737	0.35499	14.67646	210324.6887	0.46995	3.27933E-5	1955.30493	13753.25275	59.49556	14332.127
1135.0	0.97648	0.02352	8.00222	7.44211	-7.26432	19.03631	27.21226	1.2678	0.78877	128.54835	158.88168	47.46434	0.35416	14.93573	232252.086	0.46016	2.95921E-5	1958.08815	13458.42743	58.96506	14363.013
1130.0	0.97834	0.0216562	8.00618	7.437	-7.32793	18.9024	27.03757	1.27146	0.7865	129.87589	158.86149	47.98245	0.35337	15.20263	256387.0281	0.45048	2.67113E-5	1960.84021	13169.03278	57.87893	14391.467
1125.0	0.98008	0.0199214	8.00992	7.43202	-7.39001	18.7726	26.86819	1.27492	0.78437	131.13632	158.84457	48.47509	0.35262	15.47777	282966.6417	0.44089	2.4116E-5	1963.56686	12884.69477	56.8676	14417.742
1120.0	0.9817	0.0183027	8.01348	7.42716	-7.45057	18.64692	26.70359	1.27819	0.78236	132.33545	158.83116	48.9444	0.3519	15.76091	312250.2128	0.43142	2.17762E-5	1966.25682	12605.08069	55.92282	14442.057
1115.0	0.98321	0.0167881	8.01687	7.42241	-7.50981	18.52474	26.54335	1.28129	0.78046	133.48022	158.82141	49.393	0.35121	16.053	344529.2228	0.42205	1.96651E-5	1968.92028	12329.88679	55.03878	14464.607
1110.0	0.98463	0.0153703	8.0201	7.41776	-7.56777	18.40593	26.38716	1.28423	0.77868	134.57521	158.81529	49.82258	0.35054	16.35388	380125.3423	0.4128	1.77594E-5	1971.55046	12058.83995	54.20937	14485.56
1105.0	0.98596	0.0140393	8.0232	7.4132	-7.62451	18.29031	26.23477	1.28702	0.77699	135.6258	158.81299	50.23517	0.34991	16.6639	419398.1184	0.40365	1.60382E-5	1974.14291	11791.69324	53.42934	14505.068
1100.0	0.98721	0.0127878	8.02616	7.40873	-7.68018	18.17745	26.08596	1.28967	0.77539	136.63763	158.81453	50.63287	0.3493	16.98336	462750.0141	0.39462	1.4483E-5	1976.70328	11528.21977	52.69469	14523.266
1090.0	0.99008	0.00991583	8.03167	7.39959	-7.79411	17.93925	25.79473	1.29473	0.77236	138.95687	158.8562	51.54056	0.34803	17.68626	564891.0861	0.37618	1.17778E-5	1981.31488	10996.12478	53.2095	14571.545
1085.0	0.99151	0.00848675	8.03421	7.39505	-7.85073	17.81967	25.65313	1.2971	0.77095	140.15485	158.88795	52.00878	0.34742	18.0638	624489.1271	0.36697	1.06147E-5	1983.44946	10732.03159	52.81864	14596.936
1080.0	0.99281	0.00719181	8.03664	7.39062	-7.9059	17.70425	25.51486	1.29933	0.76963	141.30429	158.92077	52.45817	0.34683	18.45148	690281.3346	0.35793	9.56768E-6	1985.56618	10472.64776	51.87677	14619.654
1075.0	0.99399	0.00601253	8.03896	7.3863	-7.95973	17.59259	25.37965	1.30142	0.76839	142.42934	158.95484	52.89776	0.34627	18.84945	762962.6761	0.34908	8.62426E-6	1987.66809	10217.52903	51.02375	14640.069
1070.0	0.99507	0.00493367	8.04119	7.38208	-8.01237	17.48422	25.24332	1.3036	0.76711	143.56083	158.99067	53.3391	0.34574	19.25829	843320.9016	0.3404	7.77353E-6	1989.75079	9966.30058	50.24569	14658.489
1065.0	0.99606	0.00394327	8.04335	7.37794	-8.0639	17.37891	25.11335	1.30547	0.76601	144.7259	159.02852	53.79236	0.34523	19.6779	932227.0931	0.3319	7.00599E-6	1991.8148	9718.63981	49.53215	14675.171
1060.0	0.99697	0.00303153	8.04544	7.37389	-8.11441	17.27632	24.98587	1.30723	0.76498	145.9337	159.06851	54.26101	0.34474	20.10872	1030658.33	0.32358	6.31322E-6	1993.85398	9474.27017	48.87393	14690.331
1055.0	0.99781	0.00218755	8.04748	7.36991	-8.16398	17.17622	24.85988	1.30892	0.76399	147.14739	159.11081	54.73142	0.34427	20.55172	1139705.985	0.31542	5.68776E-6	1995.87824	9232.949	48.26423	14704.149
1050.0	0.99859	0.00140587	8.04946	7.366	-8.21269	17.07839	24.73719	1.31046	0.76309	148.27838	159.15559	55.17069	0.34381	21.00682	1260598.932	0.30742	5.12294E-6	1997.87983	8994.46531	47.69674	14716.783
1045.0	0.99932	6.78874E-4	8.0514	7.36216	-8.26057	16.98268	24.61681	1.3119	0.76226	149.24338	159.20287	55.54781	0.34338	21.47438	1394704.482	0.29959	4.61285E-6	1999.86262	8758.62975	47.16711	14728.365
1040.0	1.0	0.0	8.0533	7.35838	-8.30769	16.88887	24.49918	1.31319	0.7615	150.05934	159.25287	55.86909	0.34295	 	1543574.065	 	4.15216E-6	 	8525.27826	46.6703	14739.01
1035.0	1.0	0.0	8.05675	7.35523	-8.3469	16.8241	24.38131	1.31452	0.76074	150.39805	159.2776	56.00896	0.34262	 	1716704.859	 	3.71919E-6	 	8627.85332	-20.51501	 
1030.0	1.0	0.0	8.06017	7.35211	-8.38575	16.76006	24.26545	1.31575	0.76002	150.73452	159.30607	56.14781	0.3423	 	1910841.898	 	3.32856E-6	 	8428.43097	39.88447	 
1025.0	1.0	0.0	8.06355	7.34902	-8.42424	16.69672	24.15151	1.31688	0.75937	151.06893	159.33819	56.28571	0.34198	 	2128721.746	 	2.97641E-6	 	8230.24306	39.63758	 
1020.0	1.0	0.0	8.06692	7.34596	-8.4624	16.63406	24.03942	1.31793	0.75877	151.40142	159.37386	56.42273	0.34167	 	2373461.477	 	2.65921E-6	 	8033.25126	39.39836	 
1015.0	1.0	0.0	8.07025	7.34293	-8.50022	16.57204	23.9291	1.31888	0.75822	151.73214	159.413	56.55891	0.34136	 	2648614.914	 	2.37375E-6	 	7837.41885	39.16648	 
1010.0	1.0	0.0	8.07356	7.33992	-8.53772	16.51063	23.82048	1.31975	0.75772	152.06121	159.45553	56.69432	0.34106	 	2958237.537	 	2.11705E-6	 	7642.71073	38.94162	 
1005.0	1.0	0.0	8.07684	7.33693	-8.57491	16.44982	23.71351	1.32054	0.75727	152.38877	159.50135	56.82902	0.34077	 	3306961.582	 	1.88642E-6	 	7449.09326	38.7235	 
1000.0	1.0	0.0	8.0801	7.33397	-8.6118	16.38957	23.60811	1.32125	0.75686	152.71492	159.55039	56.96304	0.34047	 	3700083.45	 	1.6794E-6	 	7256.53419	38.51181	 
995.0	1.0	0.0	8.08334	7.33104	-8.64839	16.32987	23.50424	1.32188	0.7565	153.03979	159.60258	57.09645	0.34019	 	4143664.396	 	1.49373E-6	 	7065.00267	38.30631	 
990.0	1.0	0.0	8.08655	7.32812	-8.68469	16.27068	23.40183	1.32243	0.75619	153.36348	159.65783	57.22928	0.3399	 	4644648.039	 	1.32736E-6	 	6874.46904	38.10673	 
985.0	1.0	0.0	8.08974	7.32523	-8.72071	16.212	23.30084	1.3229	0.75592	153.68609	159.71607	57.36158	0.33963	 	5210996.641	 	1.17842E-6	 	6684.90489	37.91283	 
980.26	1.0	0.0	8.09275	7.32251	-8.75459	16.15684	23.20642	1.32328	0.7557	153.9908	159.77395	57.48645	0.33937	 	5816050.512	 	1.05185E-6	 	6506.20186	 	 
980.0	1.0	0.0	8.09292	7.32236	-8.75648	16.15372	23.20126	1.3233	0.75569	154.008	159.77699	57.49351	0.33935	 	5851843.482	 	1.04519E-6	 	6496.23591	37.7338	 
975.0	1.0	0.0	8.09609	7.31949	-8.79226	16.09477	23.10401	1.32357	0.75553	154.3341	159.83626	57.62732	0.33907	 	6577551.165	 	9.26167E-7	 	6307.65827	37.71553	 
970.0	1.0	0.0	8.09924	7.31664	-8.82777	16.03632	23.008	1.32376	0.75542	154.65938	159.8987	57.76069	0.33879	 	7400268.859	 	8.19903E-7	 	6120.02921	37.52581	 
965.0	1.0	0.0	8.10237	7.31381	-8.863	15.97836	22.91326	1.32389	0.75535	154.9839	159.96421	57.89366	0.33852	 	8333883.221	 	7.25124E-7	 	5933.32038	37.34177	 
960.0	1.0	0.0	8.10548	7.31101	-8.89797	15.92084	22.81976	1.32395	0.75532	155.30776	160.03272	58.02626	0.33825	 	9394398.91	 	6.40669E-7	 	5747.50473	37.16313	 
955.0	1.0	0.0	8.10857	7.30822	-8.93268	15.86377	22.72747	1.32393	0.75532	155.63103	160.10414	58.15853	0.33799	 	1.06002799E7	 	5.65485E-7	 	5562.55642	36.98966	 
950.0	1.0	0.0	8.11164	7.30545	-8.96715	15.8071	22.63634	1.32385	0.75537	155.95378	160.17841	58.29049	0.33773	 	1.197285007E7	 	4.98619E-7	 	5378.45076	36.82113	 
945.0	1.0	0.0	8.11469	7.30271	-9.00137	15.75083	22.54634	1.3237	0.75546	156.27608	160.25545	58.42219	0.33747	 	1.35367639E7	 	4.3921E-7	 	5195.16409	36.65733	 
940.0	1.0	0.0	8.11773	7.29998	-9.03536	15.69493	22.45742	1.32349	0.75558	156.59799	160.33519	58.55365	0.33722	 	1.532055622E7	 	3.8648E-7	 	5012.67377	36.49806	 
935.0	1.0	0.0	8.12074	7.29727	-9.06911	15.63938	22.36954	1.32321	0.75574	156.91958	160.41758	58.68489	0.33697	 	1.735729077E7	 	3.39724E-7	 	4830.95809	36.34314	 
930.0	1.0	0.0	8.12373	7.29458	-9.10264	15.58417	22.28267	1.32287	0.75593	157.24091	160.50254	58.81594	0.33672	 	1.968532159E7	 	2.98307E-7	 	4649.99617	36.19238	 
925.0	1.0	0.0	8.12671	7.29191	-9.13595	15.52928	22.19678	1.32247	0.75616	157.56203	160.59002	58.94683	0.33648	 	2.234918847E7	 	2.61659E-7	 	4469.76803	36.04563	 
920.0	1.0	0.0	8.12967	7.28925	-9.16905	15.4747	22.11182	1.32202	0.75642	157.88299	160.67996	59.07758	0.33623	 	2.540067437E7	 	2.29264E-7	 	4290.25443	35.90272	 
918.82	1.0	0.0	8.13037	7.28863	-9.17681	15.46188	22.09194	1.3219	0.75649	157.95859	160.7015	59.10836	0.33618	 	2.618229993E7	 	2.222E-7	 	4248.06624	 	 
915.0	1.0	0.0	8.13261	7.28662	-9.20181	15.42094	22.02684	1.32155	0.75668	158.20052	160.77442	59.20671	0.336	 	2.890116773E7	 	2.00652E-7	 	4111.8043	35.69003	 
910.0	1.0	0.0	8.13552	7.28401	-9.23433	15.3676	21.94242	1.32106	0.75697	158.51693	160.87172	59.33528	0.33577	 	3.292056918E7	 	1.75412E-7	 	3934.12514	35.53583	 
905.0	1.0	0.0	8.13842	7.28142	-9.26666	15.31447	21.85885	1.3205	0.75729	158.8333	160.97112	59.46377	0.33555	 	3.754064929E7	 	1.53174E-7	 	3757.08305	35.40842	 
900.0	1.0	0.0	8.1413	7.27884	-9.29881	15.26155	21.77608	1.3199	0.75764	159.14968	161.07258	59.5922	0.33532	 	4.285728133E7	 	1.33603E-7	 	3580.66299	35.28401	 
895.0	1.0	0.0	8.14417	7.27627	-9.33077	15.20884	21.6941	1.31924	0.75801	159.46609	161.17607	59.72059	0.3351	 	4.898259823E7	 	1.16397E-7	 	3404.84995	35.16261	 
