T (C)	Fraction solid (wt)-TOTAL	Fraction liquid (wt)-LIQUID	Density (g/(cm)^3)-TOTAL	Molar volume (cm^3)-TOTAL	Volume change (%)-  	Average expansion coeff. (10e-6 1/K)-  	Thermal conductivity (W/(m*K))-TOTAL	Electrical resistivity (10e-6 Ohm*m)-TOTAL	Electrical conductivity (10e6 1/(Ohm*m))-TOTAL	Young's modulus (GPa)-TOTAL	Bulk modulus (GPa)-TOTAL	Shear modulus(GPa)-TOTAL	Poisson's ratio-TOTAL	Liquid viscosity (mPa s)-  	Total viscosity (mPa s)-  	Liquid diffusivity (10e-9 (m^2)/s)-  	Total diffusivity (10e-9 (m^2)/s)-  	Surface Tension (mN/m)-  	Enthalpy (J/mole)-TOTAL	Specific heat (J/(mole K))-TOTAL	Latent heat (J/mole)-TOTAL
1400.0	0.00467	0.99533	7.06822	7.93401	0.0	32.9402	28.86788	1.41999	0.70423	3.50982E-7	120.69213	1.17101E-7	0.49863	6.56938	6.56938	1.24307	1.24307	1743.94998	43526.073	 	0.0
1390.0	0.00504	0.99496	7.07663	7.92458	-0.11886	32.85182	28.70848	1.41934	0.70455	4.77277E-7	121.08384	1.5925E-7	0.49852	6.71697	6.71697	1.20849	1.20849	1749.36677	43097.749	42.8324	24.552
1380.0	0.0054	0.9946	7.08501	7.91522	-0.23685	32.76459	28.5495	1.41867	0.70489	6.31E-7	121.47332	2.10557E-7	0.49841	6.86951	6.86951	1.17456	1.17456	1754.92012	42671.911	42.5838	48.418
1370.0	0.00575	0.99425	7.09334	7.90593	-0.35395	32.67852	28.39062	1.41797	0.70523	8.14345E-7	121.86018	2.71755E-7	0.49831	7.02721	7.02721	1.14125	1.14125	1760.61121	42248.531	42.338	71.604
1360.0	0.00609	0.99391	7.10162	7.89668	-0.47053	32.59269	28.23194	1.41727	0.70558	1.02935E-6	122.24441	3.43528E-7	0.4982	7.19032	7.19032	1.10857	1.10857	1766.4411	41827.579	42.0952	94.12
1350.0	0.00642	0.99358	7.10986	7.8875	-0.58619	32.50817	28.07337	1.41654	0.70594	1.27765E-6	122.62619	4.26425E-7	0.4981	7.35912	7.35912	1.07651	1.07651	1772.40989	41409.027	41.8552	115.976
1340.0	0.00675	0.99325	7.11806	7.87845	-0.70022	32.42705	27.91512	1.4158	0.70632	1.56071E-6	123.00682	5.20929E-7	0.49801	7.53382	7.53382	1.04507	1.04507	1778.51697	40992.847	41.618	137.181
1330.0	0.00707	0.99293	7.12622	7.86939	-0.81438	32.3443	27.75707	1.41503	0.7067	1.87951E-6	123.38374	6.27378E-7	0.49791	7.71468	7.71468	1.01425	1.01425	1784.763	40579.012	41.3835	157.745
1320.53	0.00736	0.99264	7.13392	7.86098	-0.92046	32.27069	27.60771	1.41429	0.70707	2.21534E-6	123.74048	7.39516E-7	0.49783	7.89193	7.89193	0.98561	0.98561	1790.80326	40189.271	41.15764	176.632
1320.0	0.02773	0.97227	7.13986	7.85446	-1.00257	32.04384	27.66637	1.41082	0.70881	1.82514E-5	123.45959	6.10346E-6	0.49517	7.90597	8.25244	0.98353	0.94224	1790.77931	39866.07	609.204	479.1
1310.0	0.34779	0.65221	7.23411	7.75202	-2.29372	28.48882	28.64645	1.354	0.73855	1.33966	126.42541	0.46113	0.45258	8.17408	405.00062	0.9453	0.0190789	1795.59605	34791.42015	507.46499	5162.826
1300.0	0.53046	0.46954	7.29041	7.69198	-3.05056	26.46475	29.20346	1.31978	0.7577	7.83609	128.31527	2.74453	0.42758	8.4479	2369.6542	0.90888	0.0032402	1800.4587	31792.11438	299.93058	7771.844
1290.0	0.64592	0.35408	7.32783	7.65244	-3.54885	25.18255	29.53586	1.29663	0.77123	17.94291	129.72937	6.35623	0.41144	8.73033	5815.12194	0.87389	0.00131198	1805.36371	29799.65648	199.24579	9375.737
1280.0	0.72418	0.27582	7.35468	7.62415	-3.90545	24.30735	29.72884	1.27998	0.78127	29.1157	130.89778	10.39636	0.40028	9.02373	10329.20361	0.84007	7.33894E-4	1810.30903	28355.72233	144.39342	10432.811
1270.0	0.77999	0.22001	7.37513	7.6026	-4.17706	23.67659	29.83078	1.26739	0.78902	39.96043	131.9261	14.35189	0.39217	9.33018	15690.40922	0.80724	4.80021E-4	1815.29211	27237.05494	111.86674	11166.305
1260.0	0.82135	0.17865	7.39144	7.58537	-4.39428	23.20234	29.87061	1.2575	0.79523	49.91807	132.86796	18.0077	0.38602	9.6515	21846.50344	0.77531	3.42523E-4	1820.31172	26324.07632	91.29786	11695.773
1250.0	0.85295	0.14705	7.40495	7.57106	-4.57456	22.83452	29.86664	1.24946	0.80035	58.84266	133.7529	21.30107	0.38121	9.98958	28850.87508	0.74419	2.57674E-4	1825.36486	25547.89859	77.61777	12090.088
1240.0	0.8847	0.1153	7.41751	7.55747	-4.74588	22.48859	29.86109	1.24149	0.80549	69.01973	134.70313	25.07414	0.37631	10.37633	38011.59123	0.71175	1.94291E-4	1830.28753	24765.84487	78.20537	12491.904
1230.0	0.90897	0.0910257	7.42808	7.54588	-4.89194	22.21628	29.82149	1.23492	0.80977	77.81235	135.58911	28.34777	0.37246	10.78462	48343.78503	0.68027	1.51757E-4	1835.21717	24087.97433	67.78705	12791.145
1220.0	0.92756	0.0724362	7.43718	7.53577	-5.01939	21.99837	29.75544	1.22943	0.81339	85.26696	136.42487	31.13282	0.36941	11.21423	59980.46362	0.64986	1.21501E-4	1840.16152	23488.14723	59.98271	13013.931
1210.0	0.94215	0.0578528	7.44525	7.52671	-5.13352	21.81934	29.67024	1.2247	0.81653	91.63974	137.22453	33.5205	0.36692	11.66737	73216.91285	0.62044	9.88691E-5	1845.11595	22942.96775	54.51795	13183.638
1200.0	0.95381	0.0461865	7.45255	7.51843	-5.23799	21.66841	29.5709	1.22053	0.81932	97.14497	137.99703	35.58817	0.36485	12.1462	88404.63389	0.59196	8.13315E-5	1850.07795	22437.2984	50.56694	13315.389
1190.0	0.9633	0.0366951	7.45929	7.51071	-5.33523	21.53839	29.46083	1.21677	0.82185	101.9517	138.74797	37.39738	0.36309	12.65309	105954.9979	0.56439	6.73991E-5	1855.04563	21961.0075	47.62909	13419.294
1180.0	0.97114	0.028861	7.46558	7.50344	-5.42689	21.42436	29.34249	1.21333	0.82418	106.19278	139.48123	38.99675	0.36156	13.19058	126355.1376	0.53769	5.61312E-5	1860.01574	21507.09648	45.3911	13502.336
1170.0	0.97769	0.0223141	7.47154	7.49651	-5.51421	21.32275	29.21767	1.21013	0.82636	109.97248	140.19945	40.42463	0.36022	13.7615	150183.3713	0.51184	4.69004E-5	1864.986	21070.60984	43.64866	13569.45
1160.0	0.98339	0.0166134	7.4832	7.48553	-5.65257	21.04905	28.73291	1.22202	0.81832	114.62903	141.34126	42.20566	0.35798	14.35234	181938.1855	0.48737	3.84463E-5	1869.93474	20341.7061	72.89037	13629.391
1150.0	0.98977	0.0102317	7.49674	7.47187	-5.82478	20.65658	28.1306	1.23948	0.80679	120.1942	142.6916	44.34205	0.35531	14.91156	223431.5557	0.46582	3.1088E-5	1874.79785	19472.54147	86.91646	13709.232
1140.0	0.99527	0.00473003	7.50854	7.45844	-5.99409	20.26691	27.58661	1.25504	0.79679	125.26407	143.956	46.29296	0.35295	15.52128	273592.4987	0.44437	2.52099E-5	1879.64306	18654.63661	81.79049	13774.085
1130.0	1.0	0.0	7.51879	7.44535	-6.15899	19.8853	27.09354	1.26883	0.78813	129.87534	145.14434	48.07112	0.35087	 	334202.5335	 	2.04918E-5	 	17882.87847	77.17581	13826.573
1120.0	1.0	0.0	7.52908	7.43518	-6.28722	19.6235	26.62296	1.28206	0.78	131.90635	146.0972	48.8715	0.34952	 	403627.5535	 	1.68463E-5	 	17223.66039	65.92181	 
1110.0	1.0	0.0	7.53891	7.42548	-6.40946	19.37777	26.19698	1.29355	0.77306	133.79467	146.97972	49.61663	0.34828	 	489092.6281	 	1.38027E-5	 	16585.89671	63.77637	 
1100.0	1.0	0.0	7.54832	7.41622	-6.52617	19.14698	25.81052	1.30343	0.76721	135.55523	147.80197	50.31211	0.34714	 	594585.7213	 	1.12717E-5	 	15974.6701	61.12266	 
1090.0	1.0	0.0	7.55735	7.40737	-6.63779	18.92994	25.45882	1.31181	0.7623	137.20177	148.57244	50.96312	0.34609	 	725143.3314	 	9.17501E-6	 	15387.90136	58.67687	 
1085.97	1.0	0.0	7.56089	7.4039	-6.68145	18.84605	25.32582	1.3148	0.76057	137.8364	148.87016	51.21417	0.34569	 	786274.9361	 	8.43664E-6	 	15157.73519	 	 
1085.9	1.0	0.0	7.56098	7.40381	-6.68257	18.8432	25.32313	1.31488	0.76053	137.84719	148.87492	51.21845	0.34568	 	787313.6526	 	8.42511E-6	 	15153.21093	 	 
1080.0	1.0	0.0	7.56605	7.39885	-6.74513	18.72412	25.13681	1.31887	0.75823	138.74826	149.29902	51.57501	0.34511	 	887213.3276	 	7.44397E-6	 	14822.35839	56.5543	 
1070.0	1.0	0.0	7.57439	7.3907	-6.84779	18.53136	24.84173	1.32467	0.7549	140.20447	149.98744	52.15148	0.3442	 	1088842.611	 	6.02069E-6	 	14278.00285	54.43555	 
1061.94	1.0	0.0	7.5809	7.38436	-6.92776	18.38343	24.62052	1.32855	0.7527	141.32078	150.51827	52.59357	0.34352	 	1287191.873	 	5.06236E-6	 	13852.62897	 	 
1061.51	1.0	0.0	7.58196	7.38332	-6.94089	18.34298	24.601	1.32918	0.75234	141.47472	150.58418	52.65486	0.34342	 	1301267.93	 	5.00601E-6	 	13800.64967	 	 
1060.0	1.0	0.0	7.58317	7.38215	-6.95563	18.31589	24.56125	1.32983	0.75198	141.67883	150.6819	52.7357	0.34329	 	1343180.704	 	4.8443E-6	 	13722.03971	55.59631	 
1050.0	1.0	0.0	7.59095	7.37458	-7.05107	18.14202	24.30933	1.33353	0.74989	142.98924	151.31195	53.25481	0.3425	 	1659090.298	 	3.89247E-6	 	13211.95244	51.00873	 
1040.0	1.0	0.0	7.5985	7.36725	-7.14339	17.97638	24.07416	1.33638	0.74829	144.23913	151.91758	53.75008	0.34176	 	2055558.045	 	3.11797E-6	 	12716.91253	49.50399	 
1030.0	1.0	0.0	7.60583	7.36015	-7.23291	17.81799	23.85338	1.33848	0.74712	145.43629	152.50228	54.22455	0.34106	 	2554643.32	 	2.48972E-6	 	12235.31389	48.15986	 
1020.0	1.0	0.0	7.61297	7.35324	-7.31992	17.66596	23.645	1.33991	0.74632	146.5875	153.06899	54.68089	0.34039	 	3184893.959	 	1.98171E-6	 	11765.71879	46.95951	 
1010.0	1.0	0.0	7.61994	7.34652	-7.40468	17.5195	23.44734	1.34076	0.74585	147.69862	153.62018	55.12139	0.33976	 	3983390.844	 	1.57221E-6	 	11306.85021	45.88686	 
1000.0	1.0	0.0	7.62676	7.33996	-7.48742	17.37791	23.25896	1.34108	0.74567	148.77469	154.15794	55.54804	0.33915	 	4998479.908	 	1.24316E-6	 	10857.58066	44.92695	 
990.0	1.0	0.0	7.63343	7.33354	-7.56832	17.24056	23.07894	1.34093	0.74575	149.82004	154.68401	55.96255	0.33857	 	6293436.569	 	9.79611E-7	 	10416.91882	44.06618	 
980.0	1.0	0.0	7.63998	7.32725	-7.64757	17.10688	22.90575	1.34037	0.74606	150.83838	155.19984	56.36639	0.33802	 	7951401.857	 	7.69212E-7	 	9983.99481	43.2924	 
970.0	1.0	0.0	7.64642	7.32108	-7.72532	16.9764	22.7388	1.33944	0.74658	151.83287	155.70668	56.76081	0.33748	 	1.008205859E7	 	6.01812E-7	 	9558.04586	42.59489	 
960.0	1.0	0.0	7.65275	7.31502	-7.8017	16.84867	22.57804	1.33812	0.74732	152.80626	156.20555	57.1469	0.33696	 	1.283070153E7	 	4.69086E-7	 	9138.40301	41.96428	 
950.0	1.0	0.0	7.65899	7.30906	-7.87683	16.7233	22.42144	1.33654	0.7482	153.76087	156.69733	57.52558	0.33646	 	1.639060934E7	 	3.64226E-7	 	8724.47887	41.39241	 
940.0	1.0	0.0	7.66515	7.30319	-7.9508	16.59996	22.26924	1.33467	0.74925	154.69873	157.18277	57.89765	0.33597	 	2.102000117E7	 	2.81688E-7	 	8315.75687	40.8722	 
930.0	1.0	0.0	7.67123	7.29741	-8.02371	16.47834	22.12101	1.33254	0.75045	155.62158	157.66249	58.26382	0.33549	 	2.706537869E7	 	2.16966E-7	 	7911.78182	40.39751	 
920.0	1.0	0.0	7.67723	7.2917	-8.09564	16.35817	21.97637	1.33016	0.75179	156.53092	158.13704	58.62467	0.33503	 	3.49938045E7	 	1.66414E-7	 	7512.15169	39.96301	 
910.0	1.0	0.0	7.68317	7.28606	-8.16666	16.2392	21.83501	1.32755	0.75326	157.42805	158.60689	58.98072	0.33457	 	4.543775422E7	 	1.27089E-7	 	7116.51061	39.56411	 
900.0	1.0	0.0	7.68904	7.2805	-8.23681	16.12121	21.69664	1.32473	0.75487	158.31411	159.07244	59.33243	0.33413	 	5.9257731E7	 	9.66263E-8	 	6724.5429	39.19677	 
890.0	1.0	0.0	7.69486	7.275	-8.30617	16.004	21.56103	1.3217	0.7566	159.19008	159.53404	59.6802	0.33369	 	7.763011072E7	 	7.31294E-8	 	6335.96786	38.8575	 
880.0	1.0	0.0	7.70062	7.26955	-8.37476	15.88741	21.42796	1.31847	0.75845	160.05683	159.99201	60.02435	0.33327	 	1.021709863E8	 	5.50865E-8	 	5950.53525	38.54326	 
870.0	1.0	0.0	7.70633	7.26417	-8.44264	15.77127	21.29727	1.31506	0.76042	160.91512	160.44662	60.3652	0.33285	 	1.351116608E8	 	4.1295E-8	 	5568.02154	38.25137	 
860.0	1.0	0.0	7.71199	7.25884	-8.50985	15.65543	21.16878	1.31147	0.7625	161.7656	160.89811	60.70301	0.33243	 	1.79548596E8	 	3.08029E-8	 	5188.22925	37.97923	 
850.0	1.0	0.0	7.7176	7.25356	-8.5764	15.53976	21.04236	1.3077	0.7647	162.60886	161.3467	61.03801	0.33203	 	2.398012417E8	 	2.28598E-8	 	4810.98078	37.72485	 
840.0	1.0	0.0	7.722	7.24942	-8.6285	15.48839	20.92011	1.30363	0.76709	163.33579	161.81224	61.32309	0.33176	 	3.103838741E8	 	1.75042E-8	 	4493.78151	31.71993	 
830.0	1.0	0.0	7.72638	7.24531	-8.68033	15.43702	20.79783	1.29952	0.76952	164.06044	162.27424	61.60743	0.3315	 	4.036252116E8	 	1.33396E-8	 	4174.28199	31.94995	 
820.0	1.0	0.0	7.73075	7.24122	-8.73188	15.38565	20.67553	1.29536	0.77199	164.78282	162.73273	61.89102	0.33123	 	5.274054159E8	 	1.01163E-8	 	3855.68436	31.85976	 
810.0	1.0	0.0	7.73509	7.23715	-8.78317	15.33429	20.55321	1.29115	0.77451	165.50294	163.18772	62.17386	0.33097	 	6.925575312E8	 	7.63343E-9	 	3537.98182	31.77025	 
800.0	1.0	0.0	7.73942	7.2331	-8.83418	15.28293	20.43085	1.28689	0.77707	166.22079	163.63924	62.45596	0.3307	 	9.140544387E8	 	5.73027E-9	 	3221.16712	31.68147	 
790.0	1.0	0.0	7.74373	7.22908	-8.88492	15.23157	20.30847	1.28258	0.77968	166.93638	164.08731	62.73731	0.33044	 	1.212705706E9	 	4.27884E-9	 	2905.23254	31.59346	 
780.0	1.0	0.0	7.74802	7.22507	-8.93539	15.18022	20.18606	1.27822	0.78234	167.64972	164.53195	63.01792	0.33018	 	1.61759768E9	 	3.17765E-9	 	2590.16987	31.50627	 
770.0	1.0	0.0	7.7523	7.22109	-8.98558	15.12888	20.06361	1.27381	0.78505	168.36081	164.97317	63.29778	0.32991	 	2.169623637E9	 	2.34665E-9	 	2275.97023	31.41996	 
760.0	1.0	0.0	7.75655	7.21713	-9.03551	15.07753	19.94114	1.26934	0.78781	169.06965	165.41101	63.5769	0.32965	 	2.926622727E9	 	1.72299E-9	 	1962.62408	31.33461	 
750.0	1.0	0.0	7.76079	7.21319	-9.08516	15.02619	19.81863	1.26483	0.79062	169.77624	165.84548	63.85527	0.32938	 	3.970908724E9	 	1.25758E-9	 	1650.12112	31.2503	 
740.0	1.0	0.0	7.76501	7.20927	-9.13454	14.97486	19.69608	1.26026	0.79349	170.48059	166.2766	64.13291	0.32912	 	5.420372461E9	 	9.12287E-10	 	1338.45016	31.1671	 
730.0	1.0	0.0	7.7692	7.20538	-9.18365	14.92353	19.5735	1.25563	0.79641	171.1827	166.70439	64.4098	0.32886	 	7.444964879E9	 	6.57643E-10	 	1027.59898	31.08512	 
720.0	1.0	0.0	7.77339	7.2015	-9.23248	14.8722	19.45088	1.25095	0.79939	171.88257	167.12887	64.68595	0.32859	 	1.02913E10	 	4.7101E-10	 	717.55424	31.00447	 
710.0	1.0	0.0	7.77755	7.19765	-9.28105	14.82088	19.32823	1.24622	0.80243	172.58021	167.55005	64.96136	0.32833	 	1.4319899999999998E10	 	3.35093E-10	 	408.30132	30.92529	 
700.0	1.0	0.0	7.78169	7.19382	-9.32934	14.76956	19.20553	1.24142	0.80553	173.27561	167.96797	65.23603	0.32807	 	2.00613E10	 	2.36759E-10	 	99.82409	30.84772	 
690.0	1.0	0.0	7.78581	7.19001	-9.37736	14.71824	19.08279	1.23657	0.80869	173.96878	168.38263	65.50996	0.3278	 	2.8302099999999996E10	 	1.66097E-10	 	-207.89528	30.77194	 
680.0	1.0	0.0	7.78992	7.18622	-9.42511	14.66693	18.96001	1.23165	0.81192	174.65973	168.79406	65.78315	0.32754	 	4.02173E10	 	1.15674E-10	 	-514.87652	30.69812	 
670.0	1.0	0.0	7.794	7.18245	-9.47259	14.61562	18.83718	1.22668	0.81521	175.34846	169.20227	66.0556	0.32728	 	5.757619999999999E10	 	7.99511E-11	 	-821.14161	30.62651	 
660.0	1.0	0.0	7.79807	7.17871	-9.5198	14.56432	18.7143	1.22164	0.81857	176.03496	169.60728	66.32731	0.32702	 	8.30642E10	 	5.48308E-11	 	-1126.70671	30.55651	 
650.0	1.0	0.0	7.80212	7.17498	-9.56673	14.51302	18.59138	1.21654	0.822	176.71924	170.00912	66.59829	0.32676	 	1.2079E11	 	3.73015E-11	 	-1431.35967	30.4653	 
640.0	1.0	0.0	7.80614	7.17128	-9.61339	14.46173	18.4684	1.21138	0.82551	177.40131	170.40779	66.86853	0.32649	 	1.77098E11	 	2.51661E-11	 	-1734.87447	30.35148	 
630.0	1.0	0.0	7.81015	7.1676	-9.65978	14.41043	18.34537	1.20614	0.82909	178.08116	170.80332	67.13803	0.32623	 	2.61863E11	 	1.68334E-11	 	-2037.26026	30.23858	 
620.0	1.0	0.0	7.81414	7.16394	-9.7059	14.35915	18.22229	1.20085	0.83275	178.75881	171.19572	67.40679	0.32597	 	3.90605E11	 	1.11602E-11	 	-2338.52807	30.12678	 
610.0	1.0	0.0	7.81811	7.1603	-9.75175	14.30786	18.09914	1.19548	0.83648	179.43424	171.58502	67.67482	0.32571	 	5.87942E11	 	7.33139E-12	 	-2638.68856	30.01605	 
600.0	1.0	0.0	7.82206	7.15669	-9.79733	14.25658	17.97594	1.19004	0.8403	180.10746	171.97122	67.9421	0.32545	 	8.93305E11	 	4.77063E-12	 	-2937.7502	29.90616	 
590.0	1.0	0.0	7.82599	7.15309	-9.84263	14.20531	17.85268	1.18454	0.84421	180.77848	172.35435	68.20866	0.32519	 	1.37048E12	 	3.07397E-12	 	-3235.7219	29.79717	 
580.0	1.0	0.0	7.8299	7.14952	-9.88767	14.15404	17.72936	1.17896	0.84821	181.4473	172.73442	68.47448	0.32493	 	2.12376E12	 	1.96068E-12	 	-3532.61251	29.68906	 
570.0	1.0	0.0	7.83379	7.14597	-9.93243	14.10277	17.60596	1.17331	0.85229	182.11391	173.11145	68.73956	0.32467	 	3.32544E12	 	1.23749E-12	 	-3828.43084	29.58183	 
560.0	1.0	0.0	7.83767	7.14244	-9.97692	14.05151	17.4825	1.16758	0.85647	182.77833	173.48546	69.0039	0.32441	 	5.26343E12	 	7.72576E-13	 	-4123.18564	29.47548	 
550.0	1.0	0.0	7.84152	7.13893	-10.02114	14.00025	17.35897	1.16177	0.86075	183.44055	173.85647	69.26751	0.32415	 	8.42428E12	 	4.76906E-13	 	-4416.88565	29.37	 
540.0	1.0	0.0	7.84535	7.13544	-10.06509	13.94899	17.23536	1.15589	0.86513	184.10057	174.22448	69.53039	0.32389	 	1.36402E13	 	2.90962E-13	 	-4709.53952	29.26539	 
530.0	1.0	0.0	7.84916	7.13198	-10.10876	13.89774	17.11167	1.14993	0.86962	184.7584	174.58951	69.79253	0.32363	 	2.23522E13	 	1.75373E-13	 	-5001.15584	29.16163	 
520.0	1.0	0.0	7.85295	7.12853	-10.15217	13.8465	16.9879	1.14388	0.87422	185.41405	174.95159	70.05394	0.32337	 	3.70877E13	 	1.04379E-13	 	-5291.74317	29.05873	 
510.0	1.0	0.0	7.85673	7.12511	-10.1953	13.79525	16.86405	1.13776	0.87892	186.0675	175.31073	70.31461	0.32311	 	6.23382E13	 	6.13165E-14	 	-5581.31001	28.95668	 
500.0	1.0	0.0	7.86048	7.12171	-10.23817	13.74401	16.74011	1.13154	0.88375	186.71876	175.66694	70.57455	0.32285	 	1.06197E14	 	3.55334E-14	 	-5869.86476	28.85548	 
490.0	1.0	0.0	7.86421	7.11833	-10.28076	13.69278	16.61607	1.12525	0.88869	187.36784	176.02024	70.83375	0.32259	 	1.83457E14	 	2.03031E-14	 	-6157.4158	28.7551	 
480.0	1.0	0.0	7.86792	7.11497	-10.32308	13.64155	16.49194	1.11886	0.89377	188.01473	176.37064	71.09222	0.32233	 	3.2156E14	 	1.14316E-14	 	-6443.97138	28.65556	 
470.0	1.0	0.0	7.87161	7.11164	-10.36513	13.59032	16.36771	1.11238	0.89897	188.65945	176.71816	71.34995	0.32207	 	5.722E14	 	6.33892E-15	 	-6729.5397	28.55683	 
460.0	1.0	0.0	7.87528	7.10832	-10.40691	13.5391	16.24338	1.10582	0.90431	189.30198	177.06282	71.60696	0.32181	 	1.03434E15	 	3.45954E-15	 	-7014.12889	28.45892	 
450.0	1.0	0.0	7.87893	7.10503	-10.44842	13.48788	16.11894	1.09915	0.90979	189.94233	177.40463	71.86322	0.32155	 	1.90058E15	 	1.85707E-15	 	-7297.74695	28.36181	 
440.0	1.0	0.0	7.88256	7.10176	-10.48965	13.43666	15.99438	1.09239	0.91542	190.58051	177.7436	72.11876	0.3213	 	3.55239E15	 	9.79821E-16	 	-7580.40182	28.26549	 
430.0	1.0	0.0	7.88617	7.09851	-10.53062	13.38545	15.8697	1.08554	0.9212	191.21651	178.07976	72.37356	0.32104	 	6.75899E15	 	5.07754E-16	 	-7862.10132	28.16995	 
420.0	1.0	0.0	7.88976	7.09528	-10.57131	13.33424	15.7449	1.07858	0.92714	191.85034	178.4131	72.62762	0.32078	 	1.3101E16	 	2.58232E-16	 	-8142.85298	28.07517	 
410.0	1.0	0.0	7.89333	7.09207	-10.61174	13.28304	15.61997	1.07152	0.93325	192.482	178.74366	72.88096	0.32052	 	2.58904E16	 	1.28784E-16	 	-8422.66269	27.98097	 
400.0	1.0	0.0	7.89687	7.08889	-10.65189	13.23184	15.49491	1.06436	0.93953	193.11148	179.07144	73.13356	0.32027	 	5.22114E16	 	6.29265E-17	 	-8701.53258	27.88699	 
390.0	1.0	0.0	7.9004	7.08572	-10.69177	13.18065	15.3697	1.05709	0.94599	193.7388	179.39645	73.38542	0.32001	 	1.07542E17	 	3.00968E-17	 	-8979.46451	27.79319	 
380.0	1.0	0.0	7.90391	7.08258	-10.73138	13.12946	15.24434	1.04971	0.95264	194.36394	179.71872	73.63656	0.31975	 	2.26464E17	 	1.40767E-17	 	-9256.46016	27.69956	 
370.0	1.0	0.0	7.90739	7.07946	-10.77072	13.07827	15.11883	1.04222	0.95949	194.98693	180.03826	73.88696	0.31949	 	4.88067E17	 	6.4316E-18	 	-9532.52104	27.60609	 
360.0	1.0	0.0	7.91086	7.07636	-10.80979	13.02708	14.99316	1.03462	0.96654	195.60774	180.35507	74.13662	0.31924	 	1.07769E18	 	2.86748E-18	 	-9807.64854	27.51275	 
350.0	1.0	0.0	7.9143	7.07328	-10.84859	12.97591	14.86731	1.0269	0.97381	196.22639	180.66918	74.38555	0.31898	 	2.44089E18	 	1.24604E-18	 	-10081.84381	27.41953	 
340.0	1.0	0.0	7.91772	7.07022	-10.88712	12.92473	14.74128	1.01906	0.9813	196.84288	180.98059	74.63375	0.31873	 	5.67785E18	 	5.27071E-19	 	-10355.10783	27.3264	 
330.0	1.0	0.0	7.92112	7.06719	-10.92538	12.87356	14.61506	1.01109	0.98903	197.45721	181.28933	74.88122	0.31847	 	1.35824E19	 	2.16738E-19	 	-10627.44134	27.23335	 
320.0	1.0	0.0	7.9245	7.06417	-10.96337	12.82239	14.48864	1.003	0.997	198.06938	181.5954	75.12795	0.31821	 	3.34613E19	 	8.65183E-20	 	-10898.84488	27.14035	 
