T (C)	Fraction solid (wt)-TOTAL	Fraction liquid (wt)-LIQUID	Density (g/(cm)^3)-TOTAL	Molar volume (cm^3)-TOTAL	Volume change (%)-  	Average expansion coeff. (10e-6 1/K)-  	Thermal conductivity (W/(m*K))-TOTAL	Electrical resistivity (10e-6 Ohm*m)-TOTAL	Electrical conductivity (10e6 1/(Ohm*m))-TOTAL	Young's modulus (GPa)-TOTAL	Bulk modulus (GPa)-TOTAL	Shear modulus(GPa)-TOTAL	Poisson's ratio-TOTAL	Liquid viscosity (mPa s)-  	Total viscosity (mPa s)-  	Liquid diffusivity (10e-9 (m^2)/s)-  	Total diffusivity (10e-9 (m^2)/s)-  	Surface Tension (mN/m)-  	Enthalpy (J/mole)-TOTAL	Specific heat (J/(mole K))-TOTAL	Latent heat (J/mole)-TOTAL
1400.0	0.0	1.0	7.40004	8.02795	0.0	34.22308	30.15357	1.35945	0.73559	0.0	123.09255	0.0	0.5	7.15443	7.15443	1.14142	1.14142	1838.50902	42720.39	 	0.0
1395.0	0.0	1.0	7.40429	8.02333	-0.0574698	34.18841	30.0702	1.35914	0.73576	0.0	123.2309	0.0	0.5	7.23192	7.23192	1.12582	1.12582	1842.59749	42521.782	39.7216	0.0
1390.0	0.0	1.0	7.40854	8.01873	-0.11478	34.15394	29.98683	1.35884	0.73592	0.0	123.36925	0.0	0.5	7.31073	7.31073	1.11034	1.11034	1846.71684	42323.604	39.6356	0.0
1385.0	0.0	1.0	7.41278	8.01415	-0.17193	34.11966	29.90346	1.35853	0.73609	0.0	123.5076	0.0	0.5	7.39087	7.39087	1.095	1.095	1850.86674	42125.853	39.5502	0.0
1380.0	0.0	1.0	7.41702	8.00957	-0.22891	34.08558	29.82008	1.35822	0.73626	0.0	123.64595	0.0	0.5	7.47239	7.47239	1.07979	1.07979	1855.04674	41928.526	39.4654	0.0
1375.0	0.0	1.0	7.42124	8.00501	-0.28574	34.0517	29.73671	1.35791	0.73643	0.0	123.7843	0.0	0.5	7.55531	7.55531	1.06471	1.06471	1859.25638	41731.621	39.381	0.0
1370.0	0.0	1.0	7.42546	8.00046	-0.34241	34.01803	29.65334	1.35759	0.7366	0.0	123.92265	0.0	0.5	7.63966	7.63966	1.04976	1.04976	1863.49521	41535.135	39.2972	0.0
1365.0	0.0	1.0	7.42967	7.99592	-0.39891	33.98455	29.56997	1.35728	0.73677	0.0	124.061	0.0	0.5	7.72547	7.72547	1.03494	1.03494	1867.76274	41339.064	39.2142	0.0
1360.0	0.0	1.0	7.43388	7.9914	-0.45526	33.95129	29.48659	1.35696	0.73694	0.0	124.19935	0.0	0.5	7.81279	7.81279	1.02025	1.02025	1872.05849	41143.407	39.1314	0.0
1355.0	0.0	1.0	7.43808	7.98689	-0.51144	33.91824	29.40322	1.35664	0.73711	0.0	124.3377	0.0	0.5	7.90163	7.90163	1.00569	1.00569	1876.38194	40948.162	39.049	0.0
1350.0	0.0	1.0	7.44227	7.98239	-0.56747	33.88539	29.31985	1.35632	0.73729	0.0	124.47605	0.0	0.5	7.99205	7.99205	0.99126	0.99126	1880.7326	40753.324	38.9676	0.0
1348.88	0.0	1.0	7.44321	7.98139	-0.57998	33.87807	29.30119	1.35625	0.73733	0.0	124.50702	0.0	0.5	8.0125	8.0125	0.98805	0.98805	1881.71001	40709.771	38.91858	0.0
1345.0	0.11698	0.88302	7.48331	7.93865	-1.11233	32.4436	29.66122	1.33658	0.74818	0.018572	127.90394	0.0062505	0.48564	8.08348	11.86475	0.97703	0.66565	1881.55867	38834.963	483.08339	1723.929
1340.0	0.24458	0.75542	7.52792	7.89161	-1.69825	30.87205	30.05962	1.31479	0.76058	0.36467	131.6473	0.12406	0.46973	8.17734	59.90504	0.96283	0.13143	1881.22547	36773.452	412.3022	3591.411
1335.0	0.34932	0.65068	7.5653	7.85261	-2.18408	29.57916	30.39061	1.29644	0.77134	1.55318	134.766	0.53321	0.45646	8.27374	224.88347	0.94866	0.0349024	1880.76126	35059.638	342.7628	5111.597
1330.0	0.43611	0.56389	7.59696	7.8199	-2.59153	28.50482	30.6667	1.28078	0.78078	3.84891	137.39052	1.33152	0.4453	8.37285	554.05615	0.93452	0.0141224	1880.17257	33618.936	288.1404	6359.069
1325.0	0.50863	0.49137	7.62405	7.7921	-2.93785	27.60111	30.89702	1.26726	0.7891	7.24507	139.62052	2.52291	0.43586	8.47486	1063.33558	0.92039	0.00733557	1879.47013	32394.713	244.8446	7390.458
1320.0	0.5697	0.4303	7.64735	7.76839	-3.23324	26.83999	31.08825	1.25553	0.79648	11.57497	141.53369	4.05341	0.4278	8.57972	1748.80489	0.9063	0.00444633	1878.6549	31343.537	210.2352	8249.194
1315.0	0.62146	0.37854	7.66761	7.74781	-3.48951	26.18835	31.24577	1.24528	0.80303	16.61055	143.18766	5.84512	0.42089	8.68765	2596.94854	0.89223	0.0029848	1877.7419	30431.791	182.3492	8968.89
1310.0	0.66562	0.33438	7.68535	7.7299	-3.71259	25.6299	31.37417	1.23628	0.80888	22.12116	144.63094	7.8171	0.41492	8.79872	3591.85498	0.87819	0.00215125	1876.73407	29633.23	159.7122	9575.789
1305.0	0.70352	0.29648	7.70097	7.7142	-3.90826	25.1485	31.47713	1.22834	0.81411	27.9012	145.89967	9.89587	0.40974	8.91311	4718.28771	0.86418	0.00163249	1875.63845	28927.197	141.2066	10090.548
1300.0	0.73621	0.26379	7.71483	7.70029	-4.08149	24.73032	31.55802	1.22131	0.81879	33.78382	147.02312	12.02087	0.40522	9.031	5963.68188	0.8502	0.00128749	1874.46451	28297.306	125.9782	10529.547
1295.0	0.76454	0.23546	7.72719	7.68789	-4.23587	24.36526	31.61971	1.21505	0.82301	39.63922	148.02491	14.14427	0.40125	9.15236	7318.68885	0.83626	0.00104578	1873.22026	27730.47	113.3672	10905.873
1290.0	0.78922	0.21078	7.73831	7.6768	-4.37411	24.0459	31.66481	1.20946	0.82682	45.37777	148.92589	16.23247	0.39775	9.2775	8778.18027	0.82235	8.69126E-4	1871.9103	27216.159	102.8622	11230.054
1285.0	0.81081	0.18919	7.74837	7.66674	-4.49937	23.76316	31.69541	1.20442	0.83027	50.93251	149.74029	18.26007	0.39464	9.40663	10338.90455	0.80847	7.35566E-4	1870.55048	26745.851	94.0616	11510.608
1283.95	0.81489	0.18511	7.75033	7.66477	-4.52388	23.70893	31.69956	1.20345	0.83094	52.04171	149.89867	18.66567	0.39405	9.43412	10674.5313	0.80557	7.11958E-4	1870.27358	26653.447	 	11563.21
1280.0	0.83555	0.16445	7.75897	7.65607	-4.6323	23.45491	31.74087	1.19884	0.83414	57.92519	150.67813	20.82049	0.39106	9.54714	12324.37574	0.79401	6.15085E-4	1872.89354	26227.265	103.7172	11839.815
1275.0	0.85817	0.14183	7.76878	7.64616	-4.75569	23.17325	31.77673	1.19363	0.83778	64.97232	151.55614	23.40922	0.38775	9.69283	14504.09256	0.77956	5.20966E-4	1876.13617	25739.184	97.6162	12138.887
1270.0	0.87725	0.12275	7.77746	7.63736	-4.86533	22.93133	31.79547	1.18907	0.84099	71.46108	152.3272	25.79989	0.38491	9.84143	16769.22273	0.76531	4.4914E-4	1879.30518	25301.548	87.5272	12387.887
1265.0	0.89347	0.10653	7.78522	7.62947	-4.9637	22.72203	31.79999	1.18505	0.84384	77.39826	153.01144	27.99304	0.38246	9.99283	19123.66422	0.75127	3.92567E-4	1882.40744	24904.431	79.4234	12596.735
1262.02	0.90182	0.09818	7.78942	7.62518	-5.01705	22.61267	31.79602	1.18291	0.84538	80.62656	153.38089	29.18779	0.38117	10.08443	20559.89223	0.74301	3.64438E-4	1884.22384	24686.017	 	12703.219
1260.0	0.90806	0.0919359	7.79265	7.62209	-5.05554	22.53113	31.79591	1.18135	0.84649	83.03948	153.64664	30.08177	0.38023	10.1057	21626.47899	0.74047	3.46008E-4	1883.63743	24527.094	75.4674	12786.169
1255.0	0.92201	0.0779884	7.80016	7.61489	-5.14523	22.34537	31.78779	1.1778	0.84904	88.68364	154.25269	32.17616	0.3781	10.16419	24352.26876	0.7338	3.06276E-4	1882.28445	24155.56	74.3068	12970.164
1250.0	0.93365	0.0663538	7.80691	7.60841	-5.22599	22.18577	31.76807	1.17468	0.8513	93.67683	154.78785	34.03285	0.37627	10.23041	27165.49683	0.72667	2.7366E-4	1881.01434	23816.978	67.7164	13121.568
1245.0	0.94344	0.056559	7.81305	7.60251	-5.2995	22.04751	31.7387	1.1719	0.85331	98.1078	155.26782	35.68354	0.37469	10.30422	30086.89575	0.71909	2.46277E-4	1879.82218	23504.463	62.503	13247.264
1240.0	0.95176	0.0482436	7.81869	7.59708	-5.36715	21.92644	31.70139	1.16942	0.85513	102.05377	155.70416	37.15602	0.37331	10.38537	33137.91028	0.71113	2.22866E-4	1878.70459	23212.804	58.3318	13352.462
1238.69	0.95367	0.0463306	7.82008	7.59573	-5.38388	21.89768	31.69013	1.16882	0.85556	102.99057	155.81137	37.50598	0.37299	10.40766	33955.29063	0.70899	2.17313E-4	1878.41546	23140.042	 	13376.4
1235.0	0.96257	0.0374255	7.82531	7.59027	-5.45196	21.75041	31.69983	1.16561	0.85792	106.64597	156.24988	38.87829	0.37154	10.55232	36898.0522	0.69756	1.99493E-4	1875.31487	22878.609	66.839	13500.551
1230.0	0.97225	0.0277536	7.83132	7.58388	-5.53159	21.5893	31.69373	1.16197	0.86061	110.82303	156.7612	40.44901	0.36991	10.7579	40924.2592	0.68196	1.7927E-4	1871.50614	22560.21	63.6798	13633.197
1225.0	0.97972	0.0202831	7.83635	7.57839	-5.5999	21.46274	31.67056	1.15895	0.86285	114.31003	157.19931	41.76167	0.3686	10.97346	45023.38612	0.66634	1.62407E-4	1868.0736	22274.39	57.164	13733.615
1220.0	0.98561	0.0143929	7.84069	7.57356	-5.66008	21.36096	31.63549	1.15637	0.86478	117.47722	157.58533	42.95275	0.36752	11.19872	49255.07058	0.65076	1.47958E-4	1864.97438	22011.859	52.5062	13811.092
1215.0	0.99033	0.00966586	7.84451	7.56921	-5.71431	21.27737	31.59208	1.15408	0.86649	120.74615	157.93312	44.17753	0.3666	11.43384	53670.1055	0.63525	1.35332E-4	1862.17179	21766.415	49.0888	13871.83
1210.0	0.99419	0.00581292	7.84794	7.56521	-5.76411	21.20728	31.54048	1.15208	0.86799	124.21494	158.25257	45.4729	0.36581	11.67851	58314.66039	0.61985	1.24135E-4	1859.63021	21533.797	46.5236	13920.088
1206.4	0.99651	0.00349258	7.85022	7.56251	-5.79774	21.16363	31.50061	1.15074	0.86901	126.40487	158.46817	46.29162	0.36531	11.86062	61817.72425	0.60885	1.16816E-4	1857.93788	21372.904	 	13948.445
1206.4	0.99651	0.00349258	7.85022	7.56251	-5.79774	21.16363	31.50061	1.15074	0.86901	126.40488	158.46818	46.29162	0.36531	11.86056	61817.8269	0.60885	1.16816E-4	1857.93783	21372.899	 	13948.446
1205.0	0.99732	0.00268018	7.85108	7.56149	-5.81045	21.14775	31.48428	1.15025	0.86938	127.10806	158.54905	46.55535	0.36513	11.93094	63218.32273	0.60469	1.1412E-4	1857.3285	21311.549	44.4496	13958.318
1200.0	1.0	0.0	7.85402	7.55794	-5.85464	21.09469	31.42525	1.14851	0.87069	129.11955	158.82973	47.31354	0.36451	 	68449.98618	 	1.05041E-4	 	21095.807	43.1484	13990.382
1195.0	1.0	0.0	7.8566	7.55544	-5.88575	21.08371	31.34114	1.14768	0.87132	129.50039	159.0343	47.46091	0.36428	 	73416.40539	 	9.76032E-5	 	20889.51965	41.25747	 
1190.0	1.0	0.0	7.85916	7.55298	-5.91642	21.07406	31.25704	1.14685	0.87195	129.88055	159.2392	47.60803	0.36406	 	78779.19918	 	9.06492E-5	 	20713.6454	35.17485	 
1185.0	1.0	0.0	7.86172	7.55052	-5.94703	21.0645	31.17294	1.14602	0.87259	130.25981	159.44264	47.75486	0.36384	 	84574.60696	 	8.4149E-5	 	20538.00533	35.12801	 
1180.0	1.0	0.0	7.86427	7.54807	-5.97759	21.05504	31.08883	1.14518	0.87323	130.63818	159.6446	47.9014	0.36362	 	90840.71514	 	7.80758E-5	 	20362.59913	35.08124	 
1178.74	1.0	0.0	7.86492	7.54745	-5.98531	21.05265	31.06756	1.14496	0.87339	130.73373	159.69544	47.93841	0.36356	 	92504.92909	 	7.66045E-5	 	20318.27715	 	 
1177.77	1.0	0.0	7.86541	7.54698	-5.99118	21.05096	31.05131	1.1448	0.87352	130.80685	159.73446	47.96673	0.36352	 	93800.32761	 	7.54963E-5	 	20284.35726	 	 
1176.96	1.0	0.0	7.8665	7.54593	-6.0042	21.02282	30.98395	1.14665	0.87211	130.95416	159.70588	48.02703	0.36334	 	95104.26976	 	7.44195E-5	 	20225.65035	 	 
1176.95	1.0	0.0	7.8665	7.54593	-6.00426	21.02264	30.98368	1.14665	0.8721	130.95465	159.70569	48.02723	0.36334	 	95108.30002	 	7.44162E-5	 	20225.41795	 	 
1175.0	1.0	0.0	7.8691	7.54344	-6.03532	20.95562	30.83153	1.15076	0.86899	131.3034	159.63651	48.17009	0.36291	 	98326.95383	 	7.18832E-5	 	20084.97084	55.52566	 
1170.0	1.0	0.0	7.87564	7.53718	-6.11329	20.78809	30.46034	1.16076	0.8615	132.16104	159.45694	48.52214	0.36186	 	107119.8014	 	6.57549E-5	 	19731.2133	70.75151	 
1165.0	1.0	0.0	7.88201	7.53109	-6.18917	20.62609	30.10992	1.1702	0.85455	132.97269	159.27616	48.85622	0.36086	 	116779.2842	 	6.0107E-5	 	19385.29466	69.18373	 
1160.0	1.0	0.0	7.88822	7.52515	-6.26306	20.46933	29.77504	1.17925	0.848	133.7429	159.09658	49.17404	0.35989	 	127398.241	 	5.49054E-5	 	19046.82863	67.69321	 
1155.0	1.0	0.0	7.89428	7.51937	-6.33505	20.31756	29.45449	1.18792	0.84181	134.47566	158.91999	49.47708	0.35897	 	139080.1841	 	5.01182E-5	 	18715.44839	66.27605	 
1150.0	1.0	0.0	7.9002	7.51374	-6.40524	20.17051	29.14745	1.19623	0.83596	135.17441	158.74772	49.76664	0.35808	 	151940.6201	 	4.57155E-5	 	18390.80593	64.92849	 
1145.0	1.0	0.0	7.90599	7.50824	-6.47373	20.02797	28.85316	1.20419	0.83043	135.84218	158.58076	50.04386	0.35723	 	166108.5161	 	4.16694E-5	 	18072.57132	63.64692	 
1140.0	1.0	0.0	7.91165	7.50287	-6.54058	19.88969	28.57091	1.2118	0.82522	136.48165	158.41979	50.30975	0.35641	 	181727.9943	 	3.79536E-5	 	17760.43189	62.42789	 
1135.0	1.0	0.0	7.91718	7.49763	-6.6059	19.75546	28.3	1.21907	0.8203	137.09521	158.26532	50.56523	0.35563	 	198960.2105	 	3.45437E-5	 	17454.09151	61.26808	 
1130.0	1.0	0.0	7.92259	7.49251	-6.66974	19.62508	28.0398	1.22601	0.81565	137.68497	158.11768	50.81111	0.35487	 	217985.5189	 	3.14169E-5	 	17153.26977	60.16435	 
1125.0	1.0	0.0	7.9279	7.48749	-6.73218	19.49836	27.78968	1.23264	0.81127	138.25285	157.97707	51.04812	0.35414	 	239005.8978	 	2.85517E-5	 	16857.70119	59.11372	 
1120.0	1.0	0.0	7.9331	7.48259	-6.79329	19.3751	27.54905	1.23896	0.80713	138.80056	157.84362	51.27692	0.35344	 	262247.7337	 	2.59282E-5	 	16567.13445	58.11335	 
1115.0	1.0	0.0	7.93819	7.47778	-6.85313	19.25515	27.31737	1.24498	0.80322	139.32968	157.71736	51.49813	0.35276	 	287964.9138	 	2.35279E-5	 	16281.33168	57.16055	 
1110.0	1.0	0.0	7.94319	7.47308	-6.91176	19.13832	27.09413	1.25072	0.79954	139.84163	157.59829	51.7123	0.35211	 	316442.469	 	2.13335E-5	 	16000.06772	56.25279	 
1105.0	1.0	0.0	7.9481	7.46846	-6.96924	19.02447	26.87883	1.25618	0.79606	140.33769	157.48635	51.91994	0.35148	 	348000.571	 	1.93287E-5	 	15723.12941	55.38766	 
1100.0	1.0	0.0	7.95292	7.46394	-7.02562	18.91345	26.67101	1.26138	0.79278	140.79689	157.35668	52.1133	0.35087	 	382999.2007	 	1.74987E-5	 	15450.31497	54.56289	 
1095.0	1.0	0.0	7.95766	7.45949	-7.08096	18.80511	26.47025	1.26632	0.78969	141.26493	157.25914	52.30933	0.35028	 	421843.3516	 	1.58296E-5	 	15181.43336	53.77632	 
1090.0	1.0	0.0	7.96231	7.45513	-7.13529	18.69932	26.27614	1.27101	0.78678	141.7204	157.16846	52.50012	0.34971	 	464989.1292	 	1.43083E-5	 	14916.30365	53.02594	 
1085.0	1.0	0.0	7.96689	7.45085	-7.18868	18.59596	26.0883	1.27546	0.78403	142.16422	157.0845	52.68605	0.34916	 	512950.5465	 	1.29229E-5	 	14654.75453	52.30982	 
1080.0	1.0	0.0	7.9714	7.44663	-7.24115	18.4949	25.90639	1.27969	0.78144	142.59724	157.00711	52.86745	0.34863	 	566307.3587	 	1.16622E-5	 	14396.62368	51.62617	 
1075.0	1.0	0.0	7.97584	7.44249	-7.29275	18.39603	25.73006	1.2837	0.779	143.02025	156.93615	53.04464	0.34811	 	625714.0418	 	1.0516E-5	 	14141.75732	50.97327	 
1070.0	1.0	0.0	7.98021	7.43841	-7.34352	18.29924	25.55901	1.2875	0.7767	143.43398	156.87148	53.21792	0.34761	 	691910.0339	 	9.47462E-6	 	13890.00971	50.34952	 
1065.0	1.0	0.0	7.98451	7.4344	-7.3935	18.20442	25.39294	1.29109	0.77454	143.83911	156.81294	53.38754	0.34712	 	765731.5166	 	8.52933E-6	 	13641.24273	49.7534	 
1060.0	1.0	0.0	7.98876	7.43045	-7.44271	18.11149	25.23159	1.2945	0.7725	144.23627	156.7604	53.55377	0.34665	 	848124.7732	 	7.67195E-6	 	13395.32541	49.18346	 
1055.0	1.0	0.0	7.99294	7.42656	-7.4912	18.02034	25.0747	1.29771	0.77059	144.62604	156.7137	53.71685	0.34619	 	940161.826	 	6.89495E-6	 	13152.13354	48.63837	 
1050.0	1.0	0.0	7.99708	7.42272	-7.53899	17.93088	24.92203	1.30074	0.76879	145.00897	156.67271	53.877	0.34574	 	1043057.967	 	6.19138E-6	 	12911.54931	48.11685	 
1045.0	1.0	0.0	8.00115	7.41894	-7.58612	17.84304	24.77336	1.3036	0.7671	145.38558	156.63728	54.03441	0.34531	 	1158192.374	 	5.55483E-6	 	12673.46094	47.61767	 
1040.0	1.0	0.0	8.00518	7.41521	-7.6326	17.75673	24.62848	1.3063	0.76552	145.75633	156.60728	54.18929	0.34488	 	1287131.439	 	4.97941E-6	 	12437.76232	47.13972	 
1035.0	1.0	0.0	8.00916	7.41152	-7.67847	17.67187	24.48719	1.30883	0.76404	146.12167	156.58258	54.34182	0.34447	 	1431655.901	 	4.4597E-6	 	12204.35275	46.68192	 
1030.0	1.0	0.0	8.01309	7.40789	-7.72375	17.5884	24.34931	1.31121	0.76265	146.48201	156.56305	54.49216	0.34406	 	1593792.059	 	3.9907E-6	 	11973.13657	46.24324	 
1025.0	1.0	0.0	8.01697	7.4043	-7.76847	17.50624	24.21467	1.31345	0.76136	146.83773	156.54857	54.64048	0.34367	 	1775847.756	 	3.56784E-6	 	11744.02301	45.82271	 
1020.0	1.0	0.0	8.02082	7.40075	-7.81265	17.42533	24.08311	1.31553	0.76015	147.1892	156.53901	54.78691	0.34329	 	1980454.021	 	3.18692E-6	 	11516.92589	45.41942	 
1015.0	1.0	0.0	8.02462	7.39725	-7.8563	17.3456	23.95448	1.31749	0.75902	147.53676	156.53426	54.93161	0.34291	 	2210613.06	 	2.84407E-6	 	11291.76298	45.03258	 
1010.0	1.0	0.0	8.02838	7.39378	-7.89946	17.26699	23.82863	1.3193	0.75798	147.88073	156.53421	55.07469	0.34255	 	2469754.194	 	2.53577E-6	 	11068.45629	44.66134	 
1005.0	1.0	0.0	8.0321	7.39036	-7.94213	17.18945	23.70544	1.32099	0.75701	148.22138	156.53874	55.21629	0.34219	 	2761798.204	 	2.25879E-6	 	10846.93162	44.30493	 
1000.0	1.0	0.0	8.03578	7.38697	-7.98434	17.11292	23.57946	1.32285	0.75594	148.55902	156.54776	55.35652	0.34184	 	3091232.345	 	2.01018E-6	 	10627.1184	43.96264	 
995.0	1.0	0.0	8.03943	7.38362	-8.0261	17.03735	23.46112	1.3243	0.75511	148.89388	156.56116	55.49548	0.3415	 	3463197.342	 	1.78723E-6	 	10408.94946	43.63379	 
990.0	1.0	0.0	8.04304	7.3803	-8.06744	16.96269	23.34509	1.32564	0.75435	149.22623	156.57884	55.63328	0.34116	 	3883588.487	 	1.58748E-6	 	10192.36087	43.31772	 
985.0	1.0	0.0	8.04663	7.37701	-8.10836	16.88889	23.23127	1.32686	0.75366	149.55628	156.60071	55.77001	0.34083	 	4359173.096	 	1.40869E-6	 	9977.29174	43.01383	 
980.0	1.0	0.0	8.05018	7.37376	-8.14888	16.8159	23.11957	1.32797	0.75303	149.88425	156.62667	55.90577	0.34051	 	4897728.095	 	1.24881E-6	 	9763.68405	42.72154	 
975.0	1.0	0.0	8.0537	7.37054	-8.18902	16.74369	23.00989	1.32898	0.75246	150.21034	156.65664	56.04062	0.34019	 	5508199.64	 	1.10597E-6	 	9551.48252	42.44031	 
970.0	1.0	0.0	8.05719	7.36735	-8.22879	16.6722	22.90214	1.32988	0.75195	150.53474	156.69054	56.17467	0.33988	 	6200889.568	 	9.7849E-7	 	9340.63445	42.16961	 
965.0	1.0	0.0	8.06065	7.36418	-8.2682	16.6014	22.79625	1.33069	0.75149	150.85763	156.72828	56.30797	0.33958	 	6987674.149	 	8.64823E-7	 	9131.08956	41.90898	 
960.0	1.0	0.0	8.06408	7.36105	-8.30727	16.53124	22.69213	1.33139	0.75109	151.17917	156.76979	56.4406	0.33928	 	7882259.39	 	7.63575E-7	 	8922.79988	41.65794	 
955.0	1.0	0.0	8.06749	7.35794	-8.346	16.4617	22.58973	1.33201	0.75075	151.49953	156.81497	56.57262	0.33898	 	8900480.012	 	6.7348E-7	 	8715.71965	41.41605	 
950.0	1.0	0.0	8.07087	7.35485	-8.38441	16.39274	22.48897	1.33253	0.75045	151.81884	156.86378	56.7041	0.33869	 	1.006065073E7	 	5.9339E-7	 	8509.80514	41.1829	 
945.0	1.0	0.0	8.07423	7.35179	-8.4225	16.32431	22.38979	1.33296	0.75021	152.13725	156.91612	56.8351	0.33841	 	1.138397826E7	 	5.22268E-7	 	8305.01458	40.95811	 
940.0	1.0	0.0	8.07756	7.34876	-8.4603	16.25639	22.29213	1.3333	0.75002	152.45488	156.97194	56.96567	0.33813	 	1.289504613E7	 	4.59175E-7	 	8101.30808	40.7413	 
935.0	1.0	0.0	8.08087	7.34575	-8.4978	16.18895	22.19593	1.33356	0.74987	152.77186	157.03117	57.09587	0.33785	 	1.462238427E7	 	4.03264E-7	 	7898.64746	40.53212	 
930.0	1.0	0.0	8.08416	7.34276	-8.53502	16.12195	22.10114	1.33374	0.74977	153.08831	157.09373	57.22573	0.33758	 	1.659914298E7	 	3.5377E-7	 	7696.99622	40.33025	 
925.0	1.0	0.0	8.08743	7.3398	-8.57196	16.05537	22.00771	1.33384	0.74972	153.40433	157.15959	57.35531	0.33732	 	1.886388387E7	 	3.10004E-7	 	7496.31944	40.13536	 
920.0	1.0	0.0	8.09067	7.33685	-8.60864	15.98917	21.9156	1.33385	0.74971	153.72003	157.22866	57.48466	0.33705	 	2.146151878E7	 	2.71345E-7	 	7296.5837	39.94715	 
915.0	1.0	0.0	8.0939	7.33393	-8.64506	15.92334	21.82475	1.33379	0.74974	154.0355	157.30089	57.61381	0.33679	 	2.444441775E7	 	2.37235E-7	 	7097.75694	39.76535	 
910.0	1.0	0.0	8.09711	7.33102	-8.68123	15.85783	21.73514	1.33365	0.74982	154.35083	157.37624	57.74281	0.33654	 	2.787372018E7	 	2.07172E-7	 	6899.8085	39.58969	 
905.0	1.0	0.0	8.10029	7.32814	-8.71716	15.79263	21.64672	1.33344	0.74994	154.66611	157.45463	57.87168	0.33629	 	3.182089362E7	 	1.80707E-7	 	6702.70895	39.41991	 
900.0	1.0	0.0	8.10346	7.32527	-8.75285	15.72771	21.55944	1.33316	0.7501	154.98142	157.53603	58.00046	0.33604	 	3.636958185E7	 	1.57435E-7	 	6506.43009	39.25577	 
895.0	1.0	0.0	8.10661	7.32243	-8.78832	15.66304	21.47329	1.3328	0.7503	155.29683	157.62038	58.1292	0.33579	 	4.161779906E7	 	1.36995E-7	 	6310.94485	39.09705	 
890.0	1.0	0.0	8.10975	7.3196	-8.82356	15.59861	21.38821	1.33238	0.75054	155.61242	157.70763	58.25791	0.33555	 	4.76805487E7	 	1.19064E-7	 	6116.22726	38.94352	 
