T (C)	Fraction solid (wt)-TOTAL	Fraction liquid (wt)-LIQUID	Density (g/(cm)^3)-TOTAL	Molar volume (cm^3)-TOTAL	Volume change (%)-  	Average expansion coeff. (10e-6 1/K)-  	Thermal conductivity (W/(m*K))-TOTAL	Electrical resistivity (10e-6 Ohm*m)-TOTAL	Electrical conductivity (10e6 1/(Ohm*m))-TOTAL	Young's modulus (GPa)-TOTAL	Bulk modulus (GPa)-TOTAL	Shear modulus(GPa)-TOTAL	Poisson's ratio-TOTAL	Liquid viscosity (mPa s)-  	Total viscosity (mPa s)-  	Liquid diffusivity (10e-9 (m^2)/s)-  	Total diffusivity (10e-9 (m^2)/s)-  	Surface Tension (mN/m)-  	Enthalpy (J/mole)-TOTAL	Specific heat (J/(mole K))-TOTAL	Latent heat (J/mole)-TOTAL
1500.0	0.0	1.0	6.94059	7.86057	0.0	26.16843	31.38808	1.84077	0.54325	0.0	105.43756	0.0	0.49974	6.70421	6.70421	1.29088	1.29088	1763.01227	64834.037	 	0.0
1495.0	0.0	1.0	6.94447	7.85618	-0.0558487	26.11614	31.31387	1.83992	0.5435	0.0	105.62411	0.0	0.49974	6.76259	6.76259	1.27612	1.27612	1764.78247	64612.301	44.3472	0.0
1490.0	0.0	1.0	6.94834	7.8518	-0.11154	26.06388	31.23966	1.83908	0.54375	0.0	105.81066	0.0	0.49974	6.82181	6.82181	1.26147	1.26147	1766.54931	64391.082	44.2438	0.0
1485.0	0.0	1.0	6.95221	7.84744	-0.16708	26.01166	31.16544	1.83823	0.544	0.0	105.99721	0.0	0.49974	6.88189	6.88189	1.24691	1.24691	1768.31276	64170.378	44.1408	0.0
1480.0	0.0	1.0	6.95607	7.84308	-0.22246	25.95947	31.09123	1.83738	0.54425	0.0	106.18375	0.0	0.49974	6.94285	6.94285	1.23245	1.23245	1770.07279	63950.184	44.0388	0.0
1475.0	0.0	1.0	6.95992	7.83874	-0.27769	25.90733	31.01702	1.83652	0.54451	0.0	106.3703	0.0	0.49974	7.0047	7.0047	1.21808	1.21808	1771.82934	63730.498	43.9372	0.0
1470.0	0.0	1.0	6.96377	7.83441	-0.33276	25.85523	30.9428	1.83566	0.54476	0.0	106.55685	0.0	0.49974	7.06746	7.06746	1.20381	1.20381	1773.58238	63511.317	43.8362	0.0
1465.0	0.0	1.0	6.96761	7.8301	-0.38768	25.80316	30.86859	1.8348	0.54502	0.0	106.7434	0.0	0.49974	7.13115	7.13115	1.18964	1.18964	1775.33187	63292.636	43.7362	0.0
1460.0	0.0	1.0	6.97144	7.82579	-0.44244	25.75114	30.79438	1.83393	0.54528	0.0	106.92995	0.0	0.49974	7.19579	7.19579	1.17556	1.17556	1777.07776	63074.452	43.6368	0.0
1455.0	0.0	1.0	6.97526	7.8215	-0.49704	25.69915	30.72016	1.83306	0.54554	0.0	107.11649	0.0	0.49974	7.26139	7.26139	1.16158	1.16158	1778.82002	62856.764	43.5376	0.0
1450.0	0.0	1.0	6.97908	7.81722	-0.55149	25.64721	30.64595	1.83218	0.5458	0.0	107.30304	0.0	0.49974	7.32797	7.32797	1.14769	1.14769	1780.5586	62639.589	43.435	0.0
1445.0	0.0	1.0	6.9829	7.81295	-0.60578	25.59531	30.57174	1.8313	0.54606	0.0	107.48959	0.0	0.49974	7.39556	7.39556	1.1339	1.1339	1782.29346	62422.962	43.3254	0.0
1444.35	0.0	1.0	6.98339	7.8124	-0.61281	25.58858	30.56212	1.83118	0.5461	0.0	107.51376	0.0	0.49974	7.40439	7.40439	1.13213	1.13213	1782.51794	62394.933	43.272	0.0050
1440.0	0.15399	0.84601	7.01074	7.78194	-1.00028	24.64883	31.07797	1.79622	0.55672	0.0313207	101.68401	0.0106017	0.47716	7.43034	11.00977	1.12531	0.75946	1781.04007	60843.122	356.553	1363.752
1435.0	0.28983	0.71017	7.03573	7.75431	-1.35184	23.80889	31.53812	1.76485	0.56662	0.40137	96.6186	0.13773	0.45705	7.46027	36.22836	1.11753	0.23013	1779.50827	59429.771	282.67	2561.556
1430.0	0.39431	0.60569	7.05567	7.73245	-1.62996	23.15737	31.89433	1.74003	0.5747	1.3996	92.81222	0.48549	0.44144	7.49083	103.46976	1.10971	0.0803389	1778.12638	58299.37	226.08	3476.943
1425.0	0.47655	0.52345	7.07198	7.7147	-1.85578	22.64016	32.17402	1.71984	0.58145	3.03319	89.90445	1.06125	0.42906	7.52201	217.28864	1.10187	0.038144	1776.87608	57369.735	185.927	4192.094
1420.0	0.54247	0.45753	7.08565	7.69991	-2.04392	22.21968	32.39493	1.70308	0.58717	5.16618	87.65921	1.8203	0.41905	7.55349	373.08688	1.09404	0.0221499	1775.74362	56587.308	156.485	4760.564
1416.51	0.58073	0.41927	7.09392	7.69099	-2.15735	21.97221	32.51961	1.69306	0.59065	6.84711	86.40796	2.42256	0.4132	7.57552	501.73032	1.08861	0.0164367	1775.01198	56110.9	 	5087.962
1415.0	0.60404	0.39596	7.09843	7.68619	-2.21845	21.83261	32.56738	1.68906	0.59204	7.98268	86.00624	2.83101	0.40986	7.58399	613.92017	1.08643	0.013421	1774.18711	55805.577	156.346	5328.86
1410.0	0.67013	0.32987	7.11168	7.67201	-2.39885	21.42697	32.69371	1.67755	0.59611	12.17802	84.98313	4.34829	0.40032	7.61153	1051.05541	1.07929	0.00781599	1771.7022	54913.079	178.5	6008.443
1405.0	0.72077	0.27923	7.12246	7.6606	-2.54394	21.11358	32.7774	1.6683	0.59941	16.63383	84.33806	5.97077	0.39294	7.63975	1549.30786	1.07211	0.00528664	1769.44828	54185.608	145.494	6523.517
1400.0	0.76042	0.23958	7.13149	7.65113	-2.66442	20.86444	32.83043	1.66064	0.60218	21.08715	83.94994	7.60123	0.38709	7.66872	2085.45857	1.06487	0.0039158	1767.3984	53575.056	122.11	6922.181
1395.0	0.79206	0.20794	7.13924	7.643	-2.76782	20.65988	32.86071	1.65415	0.60454	25.37381	83.74236	9.17774	0.38236	7.69835	2645.88633	1.05761	0.00307716	1765.53153	53049.291	105.153	7236.567
1390.0	0.81783	0.18217	7.14607	7.63595	-2.85756	20.49104	32.87448	1.6485	0.60661	29.41937	83.66676	10.67112	0.37846	7.72871	3225.29977	1.05029	0.0025168	1763.82017	52585.743	92.7096	7489.242
1385.0	0.83912	0.16088	7.1522	7.62963	-2.93796	20.34649	32.8753	1.64351	0.60845	33.19162	83.68847	12.06803	0.37519	7.75974	3821.25911	1.04295	0.00211789	1762.25304	52169.349	83.2788	7695.264
1380.0	0.85695	0.14305	7.15779	7.62393	-3.0105	20.22245	32.86618	1.63901	0.61013	36.68573	83.78512	13.36544	0.37241	7.79172	4433.71636	1.03554	0.00181983	1760.80984	51789.398	75.9902	7865.343
1375.0	0.87206	0.12794	7.16297	7.61867	-3.07742	20.11299	32.84902	1.6349	0.61166	39.91306	83.94022	14.5666	0.37002	7.82407	5063.96333	1.02814	0.00158852	1759.48265	51438.097	70.2602	8007.267
1370.0	0.88498	0.11502	7.16781	7.61378	-3.13954	20.01599	32.82547	1.63111	0.61308	42.89228	84.14122	15.67769	0.36794	7.85734	5714.09869	1.02068	0.00140351	1758.25704	51109.67	65.6854	8126.811
1365.0	0.89613	0.10387	7.17239	7.60919	-3.19798	19.92845	32.79666	1.62758	0.61441	45.64677	84.37935	16.70682	0.36611	7.89122	6387.02537	1.0132	0.00125182	1757.12562	50799.753	61.9834	8228.334
1360.0	0.90584	0.0941602	7.17675	7.60483	-3.25345	19.84856	32.76355	1.62425	0.61567	48.19957	84.64726	17.66212	0.36449	7.9257	7085.96233	1.00572	0.0011249	1756.08022	50505.003	58.95	8315.177
1356.06	0.91258	0.087424	7.18003	7.60156	-3.29504	19.79109	32.73494	1.62175	0.61662	50.06825	84.87545	18.36231	0.36334	7.95349	7654.28601	0.99978	0.00103887	1755.30431	50282.394	 	8374.352
1355.0	0.91487	0.0851281	7.18117	7.60044	-3.3093	19.76699	32.72903	1.62099	0.61691	50.70472	84.92487	18.60095	0.36296	7.96284	7831.21523	0.99796	0.00101473	1755.35222	50216.966	57.6074	8395.79
1350.0	0.92484	0.0751608	7.18637	7.59533	-3.37437	19.65894	32.69809	1.61754	0.61822	53.57243	85.17915	19.67731	0.36127	8.0068	8686.13952	0.98943	9.1205E-4	1755.6296	49918.072	59.7788	8487.741
1345.0	0.93336	0.0666415	7.19121	7.59061	-3.43437	19.56434	32.6626	1.61431	0.61946	56.176	85.46534	20.65599	0.3598	8.05149	9568.14303	0.98091	8.25425E-4	1755.94639	49634.958	56.6228	8564.39
1340.0	0.9407	0.0592974	7.19574	7.58621	-3.4904	19.48026	32.62338	1.61125	0.62064	58.5528	85.77718	21.5506	0.3585	8.09697	10482.62964	0.97239	7.51089E-4	1756.30047	49364.577	54.0762	8628.781
1335.0	0.94708	0.0529162	7.20004	7.58206	-3.54309	19.40501	32.58109	1.60834	0.62176	60.73459	86.1103	22.37276	0.35733	8.14299	11435.1638	0.96389	6.8639E-4	1756.6867	49104.599	51.9956	8683.24
1330.0	0.95266	0.0473357	7.20414	7.57813	-3.59312	19.33677	32.53622	1.60555	0.62284	62.74712	86.46071	23.13191	0.35629	8.18956	12430.95488	0.95543	6.29443E-4	1757.10399	48853.217	50.2764	8729.573
1325.0	0.95757	0.0424251	7.20807	7.57438	-3.64079	19.27474	32.48921	1.60286	0.62388	64.61292	86.82566	23.83637	0.35534	8.23735	13475.58907	0.94693	5.78837E-4	1757.54536	48609.011	48.8412	8769.196
1320.0	0.96192	0.03808	7.21186	7.57078	-3.68669	19.21735	32.44033	1.60025	0.6249	66.35143	87.20284	24.49331	0.35448	8.28537	14574.80139	0.93849	5.33508E-4	1758.01535	48370.848	47.6326	8803.24
1315.0	0.96578	0.0342164	7.21552	7.56731	-3.73084	19.16454	32.38993	1.59771	0.62589	67.97785	87.59033	25.10836	0.35369	8.33475	15734.20944	0.93001	4.92644E-4	1758.50216	48137.823	46.605	8832.606
1310.0	0.96923	0.0307655	7.21909	7.56393	-3.77373	19.11496	32.33813	1.59524	0.62687	69.50697	87.98664	25.68702	0.35296	8.38475	16960.14204	0.92155	4.55595E-4	1759.01378	47909.194	45.7258	8858.035
1305.0	0.97233	0.027669	7.22256	7.56066	-3.81543	19.06848	32.28518	1.59281	0.62782	70.95	88.39058	26.23345	0.35228	8.43542	18258.82315	0.91312	4.21854E-4	1759.54269	47684.357	44.9674	8880.127
1300.0	0.97512	0.0248816	7.22596	7.55746	-3.85609	19.02465	32.23123	1.59042	0.62877	72.31703	88.80107	26.7514	0.35165	8.48722	19636.91459	0.90467	3.91006E-4	1760.08714	47462.811	44.3092	8899.379
1295.0	0.97764	0.0223623	7.22929	7.55433	-3.89586	18.98306	32.17638	1.58806	0.6297	73.61719	89.21728	27.24429	0.35106	8.54009	21101.83173	0.89621	3.62706E-4	1760.64626	47244.141	43.734	8916.206
1290.0	0.97992	0.0200761	7.23256	7.55127	-3.93487	18.9434	32.12075	1.58574	0.63062	74.85813	89.63848	27.71496	0.3505	8.59385	22661.24625	0.88777	3.36669E-4	1761.21837	47027.998	43.2286	8930.954
1285.0	0.982	0.0179952	7.23577	7.54825	-3.97322	18.90537	32.06445	1.58345	0.63153	76.04642	90.06388	28.16589	0.34997	8.64877	24323.26958	0.87931	3.12661E-4	1761.80317	46814.088	42.782	8943.913
1280.0	0.98391	0.0160949	7.23895	7.54528	-4.01101	18.8687	32.00754	1.58117	0.63244	77.18801	90.49315	28.59929	0.34947	8.70454	26096.69227	0.87087	2.90479E-4	1762.40169	46602.162	42.3852	8955.331
1275.0	0.98565	0.0143546	7.24208	7.54235	-4.04827	18.83331	31.9501	1.57891	0.63335	78.28859	90.92579	29.0173	0.349	8.76159	27991.32476	0.86242	2.69946E-4	1763.00918	46392.007	42.031	8965.418
1270.0	0.98725	0.0127537	7.24517	7.53946	-4.08505	18.79908	31.89219	1.57667	0.63425	79.35193	91.36142	29.42134	0.34854	8.82011	30017.2526	0.85393	2.50913E-4	1763.62169	46183.441	41.7132	8974.353
1265.0	0.98874	0.0112623	7.24824	7.5366	-4.1215	18.76554	31.83393	1.57444	0.63515	80.38819	91.79936	29.81526	0.3481	8.87956	32187.49783	0.84546	2.33237E-4	1764.245	45976.308	41.4266	8982.289
1260.0	0.99014	0.00986072	7.2513	7.53375	-4.15768	18.73255	31.77537	1.57221	0.63605	81.40291	92.23926	30.20114	0.34768	8.94043	34515.48112	0.83698	2.16799E-4	1764.87492	45770.485	41.1646	8989.347
1255.0	0.99146	0.00854074	7.25435	7.53093	-4.19363	18.7	31.71657	1.56999	0.63695	82.39895	92.68084	30.58008	0.34726	9.00244	37014.06195	0.8285	2.01505E-4	1765.51273	45565.869	40.9232	8995.628
1250.0	0.99271	0.00729409	7.25739	7.52812	-4.22934	18.6679	31.65751	1.56777	0.63785	83.37739	93.12416	30.95248	0.34686	9.06599	39697.73553	0.82	1.87268E-4	1766.15376	45362.368	40.7002	9001.222
1247.73	0.99325	0.00675252	7.25876	7.52685	-4.24548	18.6535	31.6306	1.56677	0.63826	83.81552	93.32608	31.11928	0.34668	9.09573	40981.66725	0.8161	1.81131E-4	1766.44296	45270.294	 	9003.527
1245.0	0.99374	0.00625648	7.26031	7.52538	-4.26419	18.63818	31.59799	1.56557	0.63874	84.28475	93.56933	31.29791	0.34649	9.13103	42552.62336	0.81149	1.74131E-4	1766.7958	45160.95	40.2836	9005.157
1241.24	0.99422	0.00577596	7.26231	7.52343	-4.28902	18.61982	31.55268	1.56394	0.63941	84.85553	93.90552	31.51521	0.34626	9.18095	44781.82433	0.80508	1.65053E-4	1767.28107	45011.93	 	9006.022
1241.13	0.99427	0.00572521	7.26238	7.52335	-4.29002	18.61846	31.5514	1.56389	0.63943	84.8878	93.91581	31.52753	0.34625	9.18609	44857.13285	0.80457	1.64764E-4	1767.25012	45006.848	 	9006.747
1240.0	0.99478	0.00522084	7.26314	7.52255	-4.30019	18.60467	31.53841	1.56336	0.63965	85.21281	94.01988	31.65165	0.3461	9.23836	45629.92966	0.79942	1.61852E-4	1766.92233	44955.526	41.0848	9013.527
1235.0	0.99664	0.00336364	7.26641	7.5191	-4.34404	18.54675	31.48058	1.56106	0.64059	86.51148	94.47914	32.14763	0.34553	9.47013	49139.26232	0.77728	1.49797E-4	1765.64387	44734.574	44.1904	9037.859
1230.0	0.99804	0.00196404	7.26957	7.51577	-4.38643	18.49286	31.42232	1.55877	0.64153	87.63771	94.93704	32.57781	0.34505	9.70422	52831.33726	0.75601	1.38866E-4	1764.5108	44520.982	42.7184	9055.261
1225.0	0.99913	8.72908E-4	7.27265	7.51253	-4.42773	18.44191	31.36373	1.55649	0.64247	88.64695	95.39413	32.96334	0.34463	9.94013	56746.10594	0.73561	1.28856E-4	1763.50184	44312.442	41.708	9068.038
1220.0	1.0	0.0	7.27568	7.50935	-4.46818	18.39319	31.30488	1.55421	0.64341	89.5735	95.8507	33.31732	0.34425	 	60918.79967	 	1.1963E-4	 	44107.54	40.9804	9077.601
1215.0	1.0	0.0	7.27799	7.50696	-4.49855	18.37554	31.24329	1.55206	0.64431	90.11345	96.30399	33.52318	0.34405	 	65163.66121	 	1.11462E-4	 	43886.429	44.2222	 
1210.0	1.0	0.0	7.2803	7.50457	-4.52888	18.35789	31.18169	1.5499	0.6452	90.65472	96.75753	33.72959	0.34385	 	69737.85282	 	1.03801E-4	 	43695.433	38.1992	 
1205.0	1.0	0.0	7.28261	7.50219	-4.55916	18.34024	31.12009	1.54773	0.64611	91.1973	97.21129	33.93655	0.34364	 	74669.42928	 	9.6619E-5	 	43504.665	38.1536	 
1200.0	1.0	0.0	7.28492	7.49982	-4.58939	18.3226	31.05849	1.54555	0.64702	91.74116	97.66525	34.14405	0.34344	 	79989.04271	 	8.98883E-5	 	43314.143	38.1044	 
1195.0	1.0	0.0	7.28722	7.49745	-4.61957	18.30496	30.99689	1.54337	0.64793	92.28627	98.11937	34.35208	0.34324	 	85730.20173	 	8.3584E-5	 	43123.873	38.054	 
1190.0	1.0	0.0	7.28953	7.49508	-4.6497	18.28733	30.93529	1.54118	0.64885	92.8326	98.57363	34.56062	0.34304	 	91929.55849	 	7.7682E-5	 	42933.854	38.0038	 
1185.0	1.0	0.0	7.29183	7.49271	-4.67978	18.2697	30.87369	1.53897	0.64978	93.38013	99.02799	34.76967	0.34284	 	98627.22649	 	7.21593E-5	 	42744.085	37.9538	 
1180.0	1.0	0.0	7.29413	7.49035	-4.70981	18.25207	30.81208	1.53676	0.65072	93.92883	99.48243	34.97922	0.34264	 	105867.1328	 	6.6994E-5	 	42554.563	37.9044	 
1175.0	1.0	0.0	7.29642	7.488	-4.7398	18.23445	30.75048	1.53454	0.65166	94.47867	99.93691	35.18926	0.34244	 	113697.4088	 	6.21655E-5	 	42365.286	37.8554	 
1170.0	1.0	0.0	7.29872	7.48564	-4.76974	18.21683	30.68887	1.53232	0.65261	95.02963	100.39142	35.39978	0.34223	 	122170.8237	 	5.76542E-5	 	42176.255	37.8062	 
1165.0	1.0	0.0	7.30101	7.48329	-4.79963	18.19921	30.62726	1.53008	0.65356	95.58169	100.84592	35.61077	0.34203	 	131345.2656	 	5.34412E-5	 	41987.466	37.7578	 
1160.0	1.0	0.0	7.3033	7.48095	-4.82947	18.1816	30.56565	1.52783	0.65452	96.1348	101.30039	35.82222	0.34183	 	141284.2768	 	4.9509E-5	 	41798.918	37.7096	 
1155.0	1.0	0.0	7.30558	7.4786	-4.85926	18.16399	30.50404	1.52558	0.65549	96.68896	101.7548	36.03412	0.34163	 	152057.648	 	4.58408E-5	 	41610.609	37.6618	 
1150.0	1.0	0.0	7.30787	7.47627	-4.889	18.14638	30.44242	1.52331	0.65646	97.24413	102.20912	36.24646	0.34143	 	163742.0803	 	4.24206E-5	 	41422.537	37.6144	 
1145.0	1.0	0.0	7.31015	7.47393	-4.9187	18.12878	30.38081	1.52104	0.65745	97.80028	102.66332	36.45923	0.34123	 	176421.9213	 	3.92334E-5	 	41234.701	37.5672	 
1140.0	1.0	0.0	7.31243	7.4716	-4.94835	18.11118	30.31919	1.51876	0.65843	98.3574	103.11738	36.67242	0.34103	 	190189.9859	 	3.6265E-5	 	41047.099	37.5204	 
1135.0	1.0	0.0	7.31471	7.46928	-4.97795	18.09358	30.25758	1.51647	0.65943	98.91546	103.57127	36.88603	0.34083	 	205148.4708	 	3.35017E-5	 	40859.729	37.474	 
1130.0	1.0	0.0	7.31698	7.46695	-5.0075	18.07599	30.19596	1.51416	0.66043	99.47442	104.02497	37.10004	0.34062	 	221409.9752	 	3.0931E-5	 	40672.589	37.428	 
1125.0	1.0	0.0	7.31926	7.46463	-5.037	18.0584	30.13434	1.51185	0.66144	100.03427	104.47845	37.31445	0.34042	 	239098.6395	 	2.85406E-5	 	40485.677	37.3824	 
1120.0	1.0	0.0	7.32153	7.46232	-5.06645	18.04082	30.07271	1.50953	0.66246	100.59498	104.93168	37.52924	0.34022	 	258351.4181	 	2.63193E-5	 	40298.991	37.3372	 
1115.0	1.0	0.0	7.3238	7.46001	-5.09586	18.02323	30.01109	1.50721	0.66348	101.15652	105.38464	37.7444	0.34002	 	279319.5018	 	2.42561E-5	 	40112.529	37.2924	 
1110.0	1.0	0.0	7.32606	7.4577	-5.12522	18.00565	29.94947	1.50487	0.66451	101.71887	105.8373	37.95993	0.33982	 	302169.9091	 	2.23411E-5	 	39926.289	37.248	 
1105.0	1.0	0.0	7.32833	7.4554	-5.15452	17.98808	29.88784	1.50252	0.66555	102.282	106.28964	38.17582	0.33962	 	327087.2674	 	2.05646E-5	 	39740.269	37.204	 
1100.0	1.0	0.0	7.33059	7.4531	-5.18379	17.97051	29.82621	1.50016	0.6666	102.84589	106.74164	38.39206	0.33942	 	354275.8094	 	1.89175E-5	 	39554.466	37.1606	 
1095.0	1.0	0.0	7.33285	7.4508	-5.213	17.95294	29.76458	1.49779	0.66765	103.41051	107.19326	38.60863	0.33921	 	383961.6099	 	1.73913E-5	 	39368.879	37.1174	 
1090.0	1.0	0.0	7.3351	7.44851	-5.24216	17.93537	29.70295	1.49542	0.66871	103.97584	107.64448	38.82554	0.33901	 	416395.0967	 	1.59781E-5	 	39183.505	37.0748	 
1085.0	1.0	0.0	7.33736	7.44622	-5.27128	17.91781	29.64132	1.49303	0.66978	104.54186	108.09529	39.04276	0.33881	 	451853.8687	 	1.46702E-5	 	38998.342	37.0326	 
1080.0	1.0	0.0	7.33961	7.44393	-5.30035	17.90025	29.57968	1.49063	0.67086	105.10853	108.54565	39.2603	0.33861	 	490645.8635	 	1.34606E-5	 	38813.387	36.991	 
1075.0	1.0	0.0	7.34186	7.44165	-5.32937	17.8827	29.51805	1.48822	0.67194	105.67583	108.99554	39.47814	0.33841	 	533112.9183	 	1.23426E-5	 	38628.639	36.9496	 
1070.0	1.0	0.0	7.34411	7.43937	-5.35834	17.86515	29.45641	1.48581	0.67303	106.24375	109.44494	39.69627	0.33821	 	579634.7785	 	1.13098E-5	 	38444.094	36.909	 
1065.0	1.0	0.0	7.34635	7.4371	-5.38726	17.8476	29.39477	1.48338	0.67414	106.81225	109.89383	39.91468	0.33801	 	630633.6108	 	1.03565E-5	 	38259.75	36.8688	 
1060.0	1.0	0.0	7.3486	7.43483	-5.41614	17.83006	29.33313	1.48094	0.67525	107.3813	110.34217	40.13337	0.33781	 	686579.0916	 	9.47709E-6	 	38075.605	36.829	 
1055.0	1.0	0.0	7.35084	7.43257	-5.44496	17.81252	29.27149	1.4785	0.67636	107.9509	110.78996	40.35233	0.3376	 	747994.1458	 	8.66634E-6	 	37891.656	36.7898	 
1050.0	1.0	0.0	7.35307	7.4303	-5.47374	17.79498	29.20984	1.47604	0.67749	108.521	111.23716	40.57154	0.3374	 	815461.4264	 	7.9194E-6	 	37707.9	36.7512	 
1045.0	1.0	0.0	7.35531	7.42804	-5.50247	17.77745	29.1482	1.47357	0.67862	109.09159	111.68375	40.791	0.3372	 	889630.6348	 	7.23172E-6	 	37524.335	36.713	 
1040.0	1.0	0.0	7.35754	7.42579	-5.53116	17.75992	29.08655	1.47109	0.67977	109.66264	112.12971	41.0107	0.337	 	971226.7996	 	6.59903E-6	 	37340.957	36.6756	 
1035.0	1.0	0.0	7.35977	7.42354	-5.55979	17.74239	29.0249	1.4686	0.68092	110.23413	112.57502	41.23063	0.3368	 	1061059.645	 	6.01734E-6	 	37157.765	36.6384	 
1030.0	1.0	0.0	7.362	7.42129	-5.58838	17.72486	28.96325	1.4661	0.68208	110.80604	113.01965	41.45078	0.3366	 	1160034.202	 	5.4829E-6	 	36974.754	36.6022	 
1025.0	1.0	0.0	7.36423	7.41905	-5.61692	17.70734	28.9016	1.46359	0.68325	111.37833	113.46359	41.67114	0.3364	 	1269162.84	 	4.99223E-6	 	36791.921	36.5666	 
1020.0	1.0	0.0	7.36645	7.41681	-5.64541	17.68983	28.83994	1.46107	0.68443	111.95099	113.90681	41.89171	0.3362	 	1389578.916	 	4.54206E-6	 	36609.265	36.5312	 
1015.0	1.0	0.0	7.36867	7.41457	-5.67385	17.67232	28.77829	1.45854	0.68562	112.52399	114.34929	42.11247	0.33599	 	1522552.277	 	4.12934E-6	 	36426.78	36.497	 
1010.0	1.0	0.0	7.37089	7.41234	-5.70224	17.65481	28.71663	1.456	0.68681	113.09731	114.79101	42.33341	0.33579	 	1669506.875	 	3.75125E-6	 	36244.465	36.463	 
1005.0	1.0	0.0	7.37311	7.41011	-5.73059	17.6373	28.65497	1.45345	0.68802	113.67092	115.23194	42.55453	0.33559	 	1832040.814	 	3.40513E-6	 	36062.316	36.4298	 
1000.0	1.0	0.0	7.37532	7.40789	-5.75889	17.6198	28.59331	1.45088	0.68923	114.2448	115.67207	42.77582	0.33539	 	2011949.172	 	3.08851E-6	 	35880.329	36.3974	 
995.0	1.0	0.0	7.37753	7.40567	-5.78714	17.6023	28.53165	1.44831	0.69046	114.81893	116.11138	42.99727	0.33519	 	2211250.009	 	2.79911E-6	 	35698.501	36.3656	 
990.0	1.0	0.0	7.37974	7.40345	-5.81534	17.5848	28.46998	1.44572	0.69169	115.39328	116.54983	43.21887	0.33499	 	2432214.04	 	2.53478E-6	 	35516.828	36.3346	 
985.0	1.0	0.0	7.38195	7.40124	-5.8435	17.56731	28.40832	1.44313	0.69294	115.96783	116.98742	43.44061	0.33479	 	2677398.512	 	2.29354E-6	 	35335.306	36.3044	 
980.0	1.0	0.0	7.38415	7.39903	-5.8716	17.54982	28.34665	1.44052	0.69419	116.54256	117.42413	43.66248	0.33458	 	2949685.921	 	2.07355E-6	 	35153.932	36.2748	 
