T (C)	Fraction solid (wt)-TOTAL	Fraction liquid (wt)-LIQUID	Density (g/(cm)^3)-TOTAL	Molar volume (cm^3)-TOTAL	Volume change (%)-  	Average expansion coeff. (10e-6 1/K)-  	Thermal conductivity (W/(m*K))-TOTAL	Electrical resistivity (10e-6 Ohm*m)-TOTAL	Electrical conductivity (10e6 1/(Ohm*m))-TOTAL	Young's modulus (GPa)-TOTAL	Bulk modulus (GPa)-TOTAL	Shear modulus(GPa)-TOTAL	Poisson's ratio-TOTAL	Liquid viscosity (mPa s)-  	Total viscosity (mPa s)-  	Liquid diffusivity (10e-9 (m^2)/s)-  	Total diffusivity (10e-9 (m^2)/s)-  	Surface Tension (mN/m)-  	Enthalpy (J/mole)-TOTAL	Specific heat (J/(mole K))-TOTAL	Latent heat (J/mole)-TOTAL
1400.0	0.0	1.0	7.288	7.87751	0.0	31.12987	29.14783	1.40635	0.71106	0.0	123.72877	0.0	0.5	6.97155	6.97155	1.17136	1.17136	1763.4787	46395.49	 	0.0
1395.0	0.0	1.0	7.292	7.87319	-0.054807	31.09301	29.06709	1.40605	0.71121	0.0	123.87333	0.0	0.5	7.04667	7.04667	1.15541	1.15541	1766.2121	46191.672	40.7636	0.0
1390.0	0.0	1.0	7.29599	7.86889	-0.10946	31.05631	28.98635	1.40574	0.71137	0.0	124.01789	0.0	0.5	7.12306	7.12306	1.1396	1.1396	1768.97882	45988.324	40.6696	0.0
1385.0	0.0	1.0	7.29997	7.8646	-0.16395	31.01977	28.90562	1.40542	0.71153	0.0	124.16245	0.0	0.5	7.20075	7.20075	1.12391	1.12391	1771.7792	45785.444	40.576	0.0
1380.0	0.0	1.0	7.30394	7.86032	-0.21829	30.9834	28.82488	1.40511	0.71169	0.0	124.30701	0.0	0.5	7.27975	7.27975	1.10836	1.10836	1774.61358	45583.029	40.483	0.0
1375.0	0.0	1.0	7.30791	7.85605	-0.27247	30.9472	28.74414	1.4048	0.71185	0.0	124.45157	0.0	0.5	7.36012	7.36012	1.09295	1.09295	1777.48223	45381.076	40.3906	0.0
1370.0	0.0	1.0	7.31187	7.85179	-0.32649	30.91117	28.66341	1.40448	0.71201	0.0	124.59613	0.0	0.5	7.44186	7.44186	1.07766	1.07766	1780.38546	45179.583	40.2986	0.0
1365.0	0.0	1.0	7.31583	7.84755	-0.38036	30.87531	28.58267	1.40416	0.71217	0.0	124.7407	0.0	0.5	7.52503	7.52503	1.06251	1.06251	1783.32352	44978.547	40.2072	0.0
1360.0	0.0	1.0	7.31977	7.84332	-0.43406	30.83962	28.50194	1.40384	0.71233	0.0	124.88526	0.0	0.5	7.60964	7.60964	1.04749	1.04749	1786.29664	44777.967	40.116	0.0
1355.0	0.0	1.0	7.32371	7.8391	-0.48762	30.8041	28.4212	1.40352	0.7125	0.0	125.02982	0.0	0.5	7.69573	7.69573	1.0326	1.0326	1789.30506	44577.838	40.0258	0.0
1350.0	0.0	1.0	7.32764	7.83489	-0.54101	30.76877	28.34046	1.40319	0.71266	0.0	125.17438	0.0	0.5	7.78333	7.78333	1.01784	1.01784	1792.34896	44378.16	39.9356	0.0
1345.0	0.0	1.0	7.33157	7.8307	-0.59425	30.73361	28.25973	1.40287	0.71283	0.0	125.31894	0.0	0.5	7.87248	7.87248	1.00321	1.00321	1795.42853	44178.929	39.8462	0.0
1341.58	0.0	1.0	7.33425	7.82784	-0.63057	30.70967	28.20451	1.40264	0.71294	0.0	125.41781	0.0	0.5	7.93436	7.93436	0.99329	0.99329	1797.5553	44042.932	39.77021	0.0
1340.0	0.05257	0.94743	7.3494	7.81175	-0.83477	30.16249	28.35241	1.39396	0.71738	7.08187E-4	126.03234	2.37134E-4	0.49322	7.96226	8.74841	0.98884	0.89998	1796.85503	43225.485	517.23075	754.658
1335.0	0.20367	0.79633	7.39327	7.76535	-1.42388	28.58612	28.78501	1.36876	0.73059	0.16427	127.76524	0.0557413	0.47348	8.05271	62.39474	0.9747	0.1258	1794.72683	40873.02	470.493	2908.778
1330.0	0.32517	0.67483	7.42922	7.72779	-1.90067	27.32142	29.13525	1.3481	0.74179	1.09308	129.18608	0.37502	0.45736	8.14614	370.59278	0.96053	0.0211137	1792.73662	38957.307	383.1426	4626.59
1325.0	0.42374	0.57626	7.45896	7.69702	-2.29124	26.29645	29.42082	1.33085	0.7514	3.21607	130.37128	1.11353	0.44409	8.24254	1111.93702	0.94633	0.00701494	1790.88632	37377.7	315.9214	6008.731
1320.0	0.50438	0.49562	7.48379	7.67144	-2.61592	25.45492	29.65346	1.31628	0.75972	6.56881	131.37691	2.29186	0.43308	8.34202	2359.15187	0.93212	0.003296	1789.17695	36059.318	263.6764	7130.085
1315.0	0.57088	0.42912	7.50473	7.65005	-2.8875	24.76171	29.84197	1.30386	0.76695	10.94352	132.24695	3.84283	0.42389	8.44468	4108.88247	0.9179	0.00188649	1787.60614	34945.846	222.6944	8046.961
1310.0	0.62611	0.37389	7.52253	7.63193	-3.11752	24.18476	29.99281	1.29322	0.77327	16.04431	133.01167	5.66471	0.41616	8.55063	6320.09874	0.90367	0.0012226	1786.17208	33994.513	190.2666	8802.13
1305.0	0.67231	0.32769	7.53783	7.61645	-3.31404	23.70174	30.11183	1.28404	0.77879	21.58181	133.69547	7.65514	0.40963	8.65997	8941.61283	0.88944	8.61428E-4	1784.8715	33172.523	164.398	9428.383
1300.0	0.7112	0.2888	7.55109	7.60306	-3.48394	23.29349	30.20363	1.27608	0.78365	27.31226	134.31494	9.72616	0.40406	8.77282	11924.93657	0.87522	6.43874E-4	1783.7012	32454.515	143.6016	9951.082
1295.0	0.74414	0.25586	7.56269	7.5914	-3.632	22.94667	30.27232	1.26914	0.78794	33.04997	134.88407	11.80953	0.39929	8.88928	15231.46515	0.86101	5.02496E-4	1782.65692	31820.709	126.7612	10390.002
1290.0	0.77221	0.22779	7.57293	7.58115	-3.76213	22.65043	30.32148	1.26304	0.79174	38.66355	135.4135	13.85611	0.39518	9.00951	18834.02944	0.84681	4.05083E-4	1781.73414	31255.561	113.0296	10760.688
1285.0	0.79625	0.20375	7.58204	7.57204	-3.8778	22.39503	30.35378	1.25766	0.79513	44.06225	135.9103	15.83133	0.39162	9.1336	22714.34569	0.83263	3.34808E-4	1780.92931	30746.764	101.7594	11075.441
1280.0	0.81696	0.18304	7.59021	7.56388	-3.98142	22.17369	30.37187	1.25288	0.79816	49.19419	136.38106	17.71479	0.38851	9.26168	26866.17499	0.81848	2.82159E-4	1780.23784	30284.507	92.4514	11344.072
1275.0	0.83488	0.16512	7.59761	7.55652	-4.07478	21.98145	30.37777	1.2486	0.8009	54.03351	136.83072	19.49572	0.38578	9.39393	31292.46268	0.80436	2.41468E-4	1779.65465	29860.917	84.718	11574.45
1270.0	0.85047	0.14953	7.60436	7.54982	-4.15985	21.81273	30.37326	1.24475	0.80337	58.56939	137.26267	21.16904	0.38337	9.53041	36001.12008	0.79028	2.09208E-4	1779.17619	29469.638	78.2558	11772.93
1265.0	0.86408	0.13592	7.61055	7.54366	-4.23798	21.66368	30.35975	1.24127	0.80563	62.80282	137.67978	22.7342	0.38124	9.67134	41006.26084	0.77624	1.83078E-4	1778.79864	29105.507	72.8262	11944.674
1260.0	0.87602	0.12398	7.61628	7.53799	-4.30997	21.53212	30.33848	1.2381	0.80769	66.74297	138.08474	24.19376	0.37934	9.81687	46327.79903	0.76225	1.61521E-4	1778.517	28764.306	68.2402	12093.896
1255.0	0.88654	0.11346	7.62161	7.53272	-4.37687	21.41508	30.31057	1.2352	0.80958	70.40879	138.47947	25.5541	0.37764	9.96717	51993.18365	0.74831	1.43452E-4	1778.32762	28442.572	64.3468	12224.057
1250.0	0.89584	0.10416	7.6266	7.5278	-4.43943	21.31039	30.27684	1.23253	0.81134	73.81292	138.86522	26.81936	0.37611	10.12235	58028.16271	0.73443	1.28112E-4	1778.22699	28137.447	61.025	12338.014
1245.0	0.9041	0.095899	7.63131	7.52315	-4.49837	21.216	30.23812	1.23006	0.81297	76.97937	139.24337	27.99802	0.37473	10.28272	64469.71906	0.7206	1.14933E-4	1778.21175	27846.56	58.1774	12438.135
1242.12	0.90839	0.091609	7.63388	7.52061	-4.53066	21.16638	30.21352	1.22873	0.81385	78.68257	139.45781	28.6327	0.374	10.37717	68360.08315	0.71269	1.08187E-4	1778.23896	27685.391	 	12489.709
1240.0	0.91248	0.08752	7.63587	7.51865	-4.55552	21.12639	30.1991	1.22759	0.8146	80.30395	139.635	29.23726	0.37332	10.45403	71687.35953	0.70646	1.03021E-4	1778.47326	27552.572	58.7976	12541.756
1235.0	0.92139	0.07861	7.64038	7.51422	-4.6118	21.03874	30.16185	1.22505	0.8163	83.95156	140.04275	30.5989	0.37181	10.63901	79933.61771	0.69188	9.20877E-5	1779.06241	27249.986	60.5172	12654.373
1230.0	0.92911	0.070887	7.6446	7.51007	-4.66449	20.96156	30.11888	1.22273	0.81784	87.26236	140.43725	31.83665	0.37047	10.82916	88683.51425	0.67748	8.27268E-5	1779.69113	26963.92	57.2132	12750.867
1225.0	0.93584	0.064161	7.64859	7.50615	-4.7142	20.89311	30.07106	1.2206	0.81927	90.27309	140.82074	32.96375	0.36928	11.02458	97992.08957	0.66325	7.46193E-5	1780.35696	26691.689	54.4462	12833.918
1220.0	0.94173	0.058275	7.65237	7.50245	-4.76121	20.83255	30.01908	1.21863	0.82059	93.01731	141.19512	33.99234	0.36821	11.22537	107920.3713	0.64922	6.75284E-5	1781.05607	26431.121	52.1136	12905.699
1215.0	0.9469	0.053102	7.65598	7.4989	-4.80619	20.77792	29.96354	1.2168	0.82183	95.52677	141.56142	34.93405	0.36724	11.43174	118534.3598	0.63536	6.12758E-5	1781.7882	26180.443	50.1356	12967.978
1210.0	0.95146	0.048537	7.65945	7.49551	-4.84929	20.72877	29.90494	1.21509	0.82298	97.82766	141.92097	35.79841	0.36637	11.64373	129905.3403	0.6217	5.57243E-5	1782.54991	25938.203	48.448	13022.206
1205.0	0.95551	0.044493	7.66279	7.49224	-4.89074	20.68448	29.84366	1.21348	0.82408	99.94373	142.27456	36.59415	0.36557	11.86151	142111.0256	0.60823	5.07665E-5	1783.3387	25703.201	47.0004	13069.582
1202.88	0.95705	0.042948	7.66417	7.49089	-4.90788	20.66696	29.81682	1.21283	0.82452	100.77695	142.42276	36.90771	0.36526	11.95551	147536.4603	0.60258	4.88296E-5	1783.67935	25605.925	 	13087.45
1200.0	0.95911	0.040886	7.66623	7.48888	-4.93338	20.63601	29.77345	1.21223	0.82493	101.93301	142.64669	37.34281	0.36483	12.14084	155255.4722	0.59222	4.63113E-5	1784.48865	25466.351	47.37	13119.189
1195.0	0.96242	0.037585	7.6697	7.48549	-4.97643	20.58579	29.69858	1.21116	0.82566	103.83251	143.02845	38.05825	0.36413	12.47431	169481.3613	0.57443	4.228E-5	1785.90079	25228.656	47.539	13170.021
1190.0	0.96535	0.03465	7.67305	7.48222	-5.018	20.53994	29.62342	1.2101	0.82638	105.58717	143.40137	38.71975	0.36348	12.82316	184807.7641	0.5569	3.86416E-5	1787.31927	24997.009	46.3294	13215.184
1189.95	0.96538	0.034621	7.67309	7.48219	-5.0184	20.53959	29.62262	1.21008	0.82639	105.60429	143.40541	38.72621	0.36347	12.82696	184976.8503	0.55672	3.86049E-5	1787.33399	24994.573	 	13215.626
1189.95	0.96538	0.034621	7.67309	7.48219	-5.0184	20.53959	29.62262	1.21008	0.82639	105.60429	143.40541	38.72621	0.36347	12.82696	184976.8503	0.55672	3.86049E-5	1787.33399	24994.573	 	13215.626
1189.46	0.96853	0.031473	7.67456	7.48076	-5.03657	20.4894	29.61768	1.20989	0.82652	107.18839	143.57589	39.32207	0.36295	12.86178	188749.4674	0.55503	3.78208E-5	1787.32506	24905.472	 	13286.785
1186.14	1.0	-5.0341E-10	7.68793	7.46774	-5.20175	20.01296	29.60332	1.20772	0.828	123.75273	145.15482	45.56745	0.35791	 	225303.3359	 	3.16127E-5	 	24049.72	 	14018.799
1185.0	1.0	0.0	7.68849	7.46721	-5.20855	20.01059	29.58469	1.20754	0.82813	123.85288	145.22807	45.60578	0.35786	 	229169.9955	 	3.1055E-5	 	24009.93033	197.41573	 
1180.0	1.0	0.0	7.69093	7.46484	-5.23858	19.99941	29.50302	1.20673	0.82869	124.2905	145.54594	45.77335	0.35767	 	246990.9104	 	2.87155E-5	 	23835.79499	34.82707	 
1175.0	1.0	0.0	7.69336	7.46248	-5.26856	19.98831	29.42134	1.20592	0.82925	124.72729	145.86212	45.94066	0.35748	 	266335.3236	 	2.65382E-5	 	23661.91876	34.77525	 
1170.0	1.0	0.0	7.69579	7.46012	-5.29849	19.97729	29.33966	1.2051	0.82981	125.16326	146.17661	46.10771	0.35729	 	287344.8965	 	2.45129E-5	 	23488.30126	34.7235	 
1165.0	1.0	0.0	7.69822	7.45777	-5.32836	19.96634	29.25798	1.20428	0.83037	125.5984	146.48943	46.27449	0.3571	 	310175.4934	 	2.26299E-5	 	23314.94208	34.67184	 
1162.39	1.0	0.0	7.69948	7.45654	-5.34392	19.96067	29.21536	1.20385	0.83067	125.82507	146.65196	46.36139	0.357	 	322864.945	 	2.17011E-5	 	23224.6079	 	 
1160.0	1.0	0.0	7.70206	7.45405	-5.37555	19.89792	29.09027	1.20701	0.8285	126.3781	146.99253	46.57532	0.35671	 	337036.433	 	2.0754E-5	 	23054.42438	52.10354	 
1155.0	1.0	0.0	7.70736	7.44893	-5.44061	19.7694	28.83968	1.21325	0.82423	127.47432	147.64467	47.00026	0.3561	 	368879.5972	 	1.88963E-5	 	22704.15656	70.05356	 
1150.0	1.0	0.0	7.71255	7.44391	-5.50424	19.64453	28.60015	1.21913	0.82026	128.5239	148.25785	47.40768	0.35552	 	403991.9895	 	1.71935E-5	 	22361.05055	68.6212	 
1145.0	1.0	0.0	7.71763	7.43901	-5.56649	19.52317	28.37032	1.22468	0.81654	129.53723	148.8442	47.80141	0.35495	 	442733.9836	 	1.56339E-5	 	22024.76551	67.25701	 
1140.0	1.0	0.0	7.72261	7.43421	-5.62742	19.40516	28.14948	1.22994	0.81305	130.51845	149.4081	48.18295	0.3544	 	485508.0676	 	1.42062E-5	 	21694.98432	65.95624	 
1135.0	1.0	0.0	7.7275	7.42951	-5.6871	19.29034	27.93705	1.23491	0.80978	131.47017	149.95206	48.55328	0.35388	 	532764.077	 	1.29003E-5	 	21371.41135	64.71459	 
1130.0	1.0	0.0	7.7323	7.4249	-5.74558	19.17856	27.73254	1.2396	0.80671	132.3944	150.47792	48.91314	0.35336	 	585005.1169	 	1.17066E-5	 	21053.77049	63.52817	 
1125.0	1.0	0.0	7.737	7.42039	-5.80292	19.06968	27.53551	1.24402	0.80385	133.29285	150.98713	49.26317	0.35287	 	642794.1749	 	1.06162E-5	 	20741.80343	62.39341	 
1120.0	1.0	0.0	7.74162	7.41596	-5.85916	18.96357	27.34554	1.24818	0.80117	134.16703	151.48094	49.60393	0.35238	 	706761.6115	 	9.62081E-6	 	20435.26819	61.30705	 
1115.0	1.0	0.0	7.74617	7.41161	-5.91435	18.8601	27.16223	1.25209	0.79866	135.01829	151.96042	49.93594	0.35192	 	777613.7458	 	8.71283E-6	 	20133.93772	60.26609	 
1110.0	1.0	0.0	7.75063	7.40734	-5.96854	18.75916	26.98522	1.25577	0.79633	135.84788	152.42653	50.25965	0.35146	 	856142.3333	 	7.88515E-6	 	19837.59852	59.26784	 
1105.34	1.0	0.0	7.75473	7.40343	-6.01822	18.66718	26.82548	1.25899	0.79429	136.60319	152.85002	50.5545	0.35105	 	937094.7196	 	7.17969E-6	 	19565.49597	 	 
1105.0	1.0	0.0	7.75502	7.40315	-6.02175	18.66067	26.81416	1.25921	0.79415	136.65698	152.8802	50.5755	0.35102	 	943238.586	 	7.13118E-6	 	19546.02704	58.3143	 
1100.0	1.0	0.0	7.75932	7.39904	-6.0739	18.56499	26.64877	1.26243	0.79212	137.44716	153.3231	50.88408	0.35059	 	1039946.322	 	6.44457E-6	 	19258.74515	57.45638	 
1095.0	1.0	0.0	7.76356	7.395	-6.12518	18.47152	26.4887	1.26543	0.79024	138.2188	153.75492	51.18555	0.35017	 	1147344.332	 	5.82005E-6	 	18975.91335	56.56636	 
1090.0	1.0	0.0	7.76773	7.39103	-6.1756	18.38015	26.33367	1.26823	0.7885	138.97283	154.1763	51.48025	0.34977	 	1266692.897	 	5.25241E-6	 	18697.35852	55.71097	 
1085.0	1.0	0.0	7.77184	7.38712	-6.22521	18.29081	26.18341	1.27083	0.78689	139.71012	154.58787	51.76851	0.34937	 	1399409.533	 	4.73685E-6	 	18422.91645	54.88841	 
1080.0	1.0	0.0	7.77589	7.38327	-6.27404	18.20341	26.03765	1.27324	0.7854	140.4315	154.99018	52.05066	0.34899	 	1547089.895	 	4.26891E-6	 	18152.43108	54.09707	 
1075.0	1.0	0.0	7.77988	7.37949	-6.32211	18.11789	25.89616	1.27547	0.78403	141.13775	155.38375	52.32697	0.34861	 	1711531.26	 	3.8445E-6	 	17885.7538	53.33546	 
1070.0	1.0	0.0	7.78382	7.37576	-6.36946	18.03416	25.7587	1.27752	0.78277	141.82958	155.76908	52.59773	0.34825	 	1894759.405	 	3.45985E-6	 	17622.74289	52.60218	 
1065.0	1.0	0.0	7.7877	7.37208	-6.4161	17.95215	25.62506	1.2794	0.78162	142.5077	156.1466	52.86321	0.34789	 	2099059.605	 	3.11148E-6	 	17363.26295	51.89599	 
1060.0	1.0	0.0	7.79152	7.36846	-6.46207	17.87181	25.49503	1.28112	0.78057	143.17277	156.51675	53.12365	0.34754	 	2327011.438	 	2.79619E-6	 	17107.18442	51.2157	 
1055.0	1.0	0.0	7.7953	7.36489	-6.50739	17.79307	25.36841	1.28268	0.77961	143.8254	156.87991	53.37929	0.3472	 	2581528.904	 	2.51106E-6	 	16854.38322	50.56024	 
1050.0	1.0	0.0	7.79903	7.36137	-6.55209	17.71586	25.24502	1.2841	0.77875	144.46618	157.23646	53.63036	0.34687	 	2865906.52	 	2.25338E-6	 	16604.74028	49.92859	 
1045.0	1.0	0.0	7.80271	7.3579	-6.59617	17.64013	25.12469	1.28538	0.77798	145.09569	157.58674	53.87706	0.34654	 	3183871.692	 	2.02067E-6	 	16358.14131	49.31979	 
1040.0	1.0	0.0	7.80635	7.35447	-6.63967	17.56582	25.00725	1.28651	0.77729	145.71444	157.93108	54.11962	0.34623	 	3539644.8	 	1.81068E-6	 	16114.47654	48.73295	 
1035.0	1.0	0.0	7.80994	7.35109	-6.68261	17.49288	24.89255	1.28752	0.77669	146.32296	158.26977	54.35821	0.34591	 	3938008.326	 	1.62132E-6	 	15873.64036	48.16724	 
1030.0	1.0	0.0	7.81349	7.34775	-6.725	17.42124	24.78043	1.2884	0.77615	146.92172	158.60312	54.59304	0.34561	 	4384386.063	 	1.45068E-6	 	15635.53124	47.62182	 
1025.0	1.0	0.0	7.817	7.34445	-6.76687	17.35087	24.67077	1.28916	0.7757	147.51118	158.93138	54.82426	0.34531	 	4884934.055	 	1.29704E-6	 	15400.05145	47.09596	 
1020.0	1.0	0.0	7.82047	7.34119	-6.80823	17.28172	24.56341	1.28981	0.77531	148.09178	159.2548	55.05206	0.34502	 	5446644.986	 	1.15879E-6	 	15167.10693	46.5889	 
1015.0	1.0	0.0	7.8239	7.33797	-6.8491	17.21372	24.45825	1.29035	0.77498	148.66394	159.57363	55.27658	0.34473	 	6077469.166	 	1.0345E-6	 	14936.60717	46.09995	 
1010.0	1.0	0.0	7.82729	7.33479	-6.88949	17.14685	24.35517	1.29078	0.77473	149.22804	159.88809	55.49799	0.34445	 	6786452.617	 	9.22829E-7	 	14708.46505	45.62842	 
1005.0	1.0	0.0	7.83065	7.33165	-6.92943	17.08105	24.25405	1.29111	0.77453	149.78446	160.19839	55.71643	0.34417	 	7583897.155	 	8.22576E-7	 	14482.59669	45.17367	 
1000.0	1.0	0.0	7.83397	7.32853	-6.96892	17.01628	24.15478	1.29135	0.77439	150.33357	160.50472	55.93204	0.34389	 	8481544.905	 	7.32641E-7	 	14258.92142	44.73505	 
995.0	1.0	0.0	7.83727	7.32546	-7.00799	16.95251	24.05728	1.29149	0.7743	150.87569	160.80727	56.14494	0.34363	 	9492791.716	 	6.52024E-7	 	14037.36161	44.31196	 
990.0	1.0	0.0	7.84052	7.32241	-7.04664	16.88968	23.96144	1.29154	0.77427	151.41115	161.10622	56.35526	0.34336	 	1.063293337E7	 	5.79814E-7	 	13817.84261	43.9038	 
985.0	1.0	0.0	7.84375	7.3194	-7.0849	16.82776	23.86718	1.29151	0.77429	151.94026	161.40173	56.56313	0.3431	 	1.191944985E7	 	5.15185E-7	 	13600.29264	43.50999	 
980.0	1.0	0.0	7.84695	7.31642	-7.12277	16.76671	23.77441	1.2914	0.77436	152.4633	161.69396	56.76864	0.34285	 	1.337233724E7	 	4.57386E-7	 	13384.64271	43.12999	 
975.0	1.0	0.0	7.85012	7.31346	-7.16026	16.7065	23.68306	1.2912	0.77447	152.98055	161.98304	56.97192	0.3426	 	1.501448988E7	 	4.05735E-7	 	13170.82654	42.76323	 
970.0	1.0	0.0	7.85326	7.31054	-7.1974	16.64709	23.59305	1.29094	0.77463	153.49228	162.26912	57.17306	0.34235	 	1.687214547E7	 	3.59617E-7	 	12958.78048	42.40921	 
965.0	1.0	0.0	7.85637	7.30764	-7.23418	16.58845	23.50431	1.2906	0.77483	153.99871	162.55232	57.37215	0.3421	 	1.897540044E7	 	3.1847E-7	 	12748.44337	42.06742	 
960.0	1.0	0.0	7.85946	7.30477	-7.27063	16.53054	23.41678	1.29019	0.77508	154.5001	162.83276	57.56929	0.34186	 	2.135881208E7	 	2.8179E-7	 	12539.75657	41.73736	 
955.0	1.0	0.0	7.86253	7.30192	-7.30674	16.47334	23.33039	1.28972	0.77536	154.99666	163.11056	57.76456	0.34162	 	2.406209652E7	 	2.49118E-7	 	12332.66378	41.41856	 
950.0	1.0	0.0	7.86556	7.2991	-7.34254	16.41681	23.2451	1.28918	0.77569	155.48861	163.38582	57.95805	0.34139	 	2.713094704E7	 	2.2004E-7	 	12127.11097	41.11056	 
945.0	1.0	0.0	7.86858	7.29631	-7.37804	16.36092	23.16083	1.28858	0.77605	155.97613	163.65864	58.14984	0.34116	 	3.061798005E7	 	1.94183E-7	 	11923.04636	40.81292	 
940.0	1.0	0.0	7.87157	7.29353	-7.41323	16.30565	23.07754	1.28793	0.77644	156.45942	163.92912	58.33999	0.34093	 	3.458385088E7	 	1.71209E-7	 	11720.4203	40.52521	 
935.0	1.0	0.0	7.87454	7.29078	-7.44814	16.25097	22.99519	1.28721	0.77687	156.93866	164.19733	58.52858	0.3407	 	3.90985496E7	 	1.50816E-7	 	11519.18519	40.24702	 
930.0	1.0	0.0	7.87748	7.28806	-7.48276	16.19685	22.91372	1.28644	0.77734	157.41401	164.46337	58.71566	0.34048	 	4.424291928E7	 	1.32728E-7	 	11319.29541	39.97796	 
925.0	1.0	0.0	7.88041	7.28535	-7.51711	16.14326	22.83309	1.28562	0.77783	157.88564	164.72731	58.90132	0.34026	 	5.011044232E7	 	1.167E-7	 	11120.70723	39.71763	 
920.0	1.0	0.0	7.88332	7.28267	-7.5512	16.09019	22.75327	1.28475	0.77836	158.35369	164.98923	59.0856	0.34004	 	5.680932575E7	 	1.02509E-7	 	10923.37878	39.46569	 
915.0	1.0	0.0	7.8862	7.28	-7.58503	16.03761	22.6742	1.28382	0.77892	158.81831	165.24918	59.26855	0.33982	 	6.446495383E7	 	8.99569E-8	 	10727.26991	39.22177	 
910.0	1.0	0.0	7.88907	7.27735	-7.61861	15.98549	22.59587	1.28285	0.77951	159.27963	165.50725	59.45024	0.3396	 	7.32227762E7	 	7.88643E-8	 	10532.34219	38.98554	 
905.0	1.0	0.0	7.89192	7.27473	-7.65195	15.93382	22.51822	1.28184	0.78013	159.73778	165.76347	59.63071	0.33939	 	8.325169866E7	 	6.90708E-8	 	10338.55878	38.75668	 
900.0	1.0	0.0	7.89475	7.27212	-7.68505	15.88257	22.44124	1.28077	0.78078	160.19289	166.01793	59.81001	0.33918	 	9.474809148E7	 	6.04324E-8	 	10145.88439	38.53488	 
895.0	1.0	0.0	7.89756	7.26953	-7.71793	15.83172	22.36489	1.27967	0.78145	160.64505	166.27066	59.98819	0.33897	 	1.079405018E8	 	5.28203E-8	 	9954.28525	38.31983	 
890.0	1.0	0.0	7.90035	7.26696	-7.75058	15.78126	22.28914	1.27852	0.78215	161.0944	166.52172	60.16528	0.33877	 	1.230952314E8	 	4.61191E-8	 	9763.72894	38.11126	 
885.0	1.0	0.0	7.90313	7.2644	-7.78301	15.73117	22.21396	1.27734	0.78288	161.54101	166.77115	60.34133	0.33856	 	1.405229374E8	 	4.02258E-8	 	9574.18446	37.9089	 
