T (C)	Fraction solid (wt)-TOTAL	Fraction liquid (wt)-LIQUID	Density (g/(cm)^3)-TOTAL	Molar volume (cm^3)-TOTAL	Volume change (%)-  	Average expansion coeff. (10e-6 1/K)-  	Thermal conductivity (W/(m*K))-TOTAL	Electrical resistivity (10e-6 Ohm*m)-TOTAL	Electrical conductivity (10e6 1/(Ohm*m))-TOTAL	Young's modulus (GPa)-TOTAL	Bulk modulus (GPa)-TOTAL	Shear modulus(GPa)-TOTAL	Poisson's ratio-TOTAL	Liquid viscosity (mPa s)-  	Total viscosity (mPa s)-  	Liquid diffusivity (10e-9 (m^2)/s)-  	Total diffusivity (10e-9 (m^2)/s)-  	Surface Tension (mN/m)-  	Enthalpy (J/mole)-TOTAL	Specific heat (J/(mole K))-TOTAL	Latent heat (J/mole)-TOTAL
1400.0	0.0	1.0	6.86208	7.99797	0.0	32.62533	27.98789	1.46464	0.68276	0.0	119.52961	0.0	0.5	6.39071	6.39071	1.27783	1.27783	1735.4676	48756.108	 	0.0
1395.0	0.0	1.0	6.86596	7.99346	-0.0564266	32.58863	27.91083	1.46429	0.68292	0.0	119.68314	0.0	0.5	6.45661	6.45661	1.26101	1.26101	1737.45642	48554.286	40.3644	0.0
1390.0	0.0	1.0	6.86982	7.98896	-0.11269	32.55211	27.83377	1.46395	0.68308	0.0	119.83667	0.0	0.5	6.5236	6.5236	1.24432	1.24432	1739.46185	48352.902	40.2768	0.0
1385.0	0.0	1.0	6.87369	7.98447	-0.1688	32.51576	27.75672	1.4636	0.68325	0.0	119.9902	0.0	0.5	6.59169	6.59169	1.22776	1.22776	1741.48412	48151.956	40.1892	0.0
1380.0	0.0	1.0	6.87754	7.97999	-0.22475	32.47959	27.67966	1.46325	0.68341	0.0	120.14373	0.0	0.5	6.6609	6.6609	1.21134	1.21134	1743.52342	47951.443	40.1026	0.0
1375.0	0.0	1.0	6.88139	7.97553	-0.28053	32.4436	27.6026	1.46289	0.68358	0.0	120.29726	0.0	0.5	6.73128	6.73128	1.19505	1.19505	1745.57993	47751.363	40.016	0.0
1370.0	0.0	1.0	6.88523	7.97108	-0.33616	32.4078	27.52554	1.46254	0.68374	0.0	120.45079	0.0	0.5	6.80283	6.80283	1.17889	1.17889	1747.65384	47551.712	39.9302	0.0
1365.0	0.0	1.0	6.88906	7.96665	-0.39163	32.37217	27.44848	1.46218	0.68391	0.0	120.60432	0.0	0.5	6.87558	6.87558	1.16287	1.16287	1749.74532	47352.489	39.8446	0.0
1360.0	0.0	1.0	6.89289	7.96222	-0.44693	32.33674	27.37142	1.46182	0.68408	0.0	120.75785	0.0	0.5	6.94957	6.94957	1.14698	1.14698	1751.85452	47153.692	39.7594	0.0
1355.0	0.0	1.0	6.89671	7.95781	-0.50208	32.30149	27.29436	1.46146	0.68425	0.0	120.91138	0.0	0.5	7.02481	7.02481	1.13122	1.13122	1753.98161	46955.318	39.6748	0.0
1350.0	0.0	1.0	6.90052	7.95342	-0.55707	32.26643	27.21731	1.4611	0.68442	0.0	121.06491	0.0	0.5	7.10134	7.10134	1.11559	1.11559	1756.12671	46757.365	39.5906	0.0
1345.0	0.0	1.0	6.90433	7.94903	-0.6119	32.23157	27.14025	1.46073	0.68459	0.0	121.21844	0.0	0.5	7.17919	7.17919	1.1001	1.1001	1758.28998	46559.832	39.5066	0.0
1340.0	0.0	1.0	6.90813	7.94466	-0.66656	32.1969	27.06319	1.46037	0.68476	0.0	121.37197	0.0	0.5	7.25837	7.25837	1.08473	1.08473	1760.47154	46362.715	39.4234	0.0
1335.0	0.0	1.0	6.91192	7.9403	-0.72107	32.16243	26.98613	1.46	0.68493	0.0	121.5255	0.0	0.5	7.33894	7.33894	1.0695	1.0695	1762.67149	46166.014	39.3402	0.0
1330.0	0.0	1.0	6.91571	7.93595	-0.77542	32.12815	26.90907	1.45963	0.68511	0.0	121.67903	0.0	0.5	7.4209	7.4209	1.0544	1.0544	1764.88995	45969.725	39.2578	0.0
1325.0	0.0	1.0	6.91949	7.93162	-0.82961	32.09408	26.83201	1.45925	0.68528	0.0	121.83256	0.0	0.5	7.50431	7.50431	1.03943	1.03943	1767.127	45773.847	39.1756	0.0
1322.31	0.0	1.0	6.92151	7.9293	-0.85865	32.07586	26.79062	1.45905	0.68538	0.0	121.91503	0.0	0.5	7.54971	7.54971	1.03144	1.03144	1768.33635	45668.797	39.11326	0.0010
1320.0	0.0625203	0.93748	6.9375	7.91108	-1.08644	31.46795	27.02282	1.44442	0.69232	0.00133767	122.1067	4.48364E-4	0.49173	7.58931	8.50378	1.02457	0.91439	1767.87839	44693.98	421.231	884.396
1315.0	0.18406	0.81594	6.96898	7.87529	-1.53385	30.27824	27.48115	1.41587	0.70628	0.10284	122.51836	0.0348479	0.47549	7.67589	30.34006	1.00983	0.25548	1766.98285	42789.809	380.8342	2593.506
1310.0	0.28564	0.71436	6.99591	7.84505	-1.91197	29.28319	27.8695	1.39174	0.71852	0.60844	122.93337	0.20812	0.46176	7.76396	136.60434	0.99523	0.0565645	1766.21686	41177.455	322.4708	4011.202
1305.0	0.37127	0.62873	7.01916	7.81905	-2.23708	28.437	28.20162	1.37101	0.72939	1.76753	123.34928	0.60947	0.45005	7.85351	389.07312	0.98078	0.0197972	1765.57095	39798.081	275.8748	5196.32
1300.0	0.44403	0.55597	7.03943	7.79657	-2.51813	27.71485	28.48741	1.35295	0.73912	3.6737	123.76817	1.27559	0.44	7.94466	825.14556	0.96646	0.00930521	1765.03465	38606.472	238.3218	6194.075
1295.0	0.50631	0.49369	7.05723	7.77686	-2.76456	27.09013	28.73332	1.33711	0.74788	6.29888	124.18741	2.20039	0.43131	8.03746	1460.94503	0.95226	0.0052389	1764.5996	37567.503	207.7938	7039.589
1290.0	0.55995	0.44005	7.07299	7.75959	-2.98056	26.55142	28.94484	1.32311	0.7558	9.54532	124.61009	3.35215	0.42376	8.13204	2298.98815	0.93818	0.00331857	1764.2562	36653.621	182.7764	7760.412
1285.0	0.60643	0.39357	7.08709	7.74413	-3.17374	26.07695	29.12617	1.31067	0.76297	13.2887	125.03285	4.68852	0.41715	8.2285	3334.76075	0.92422	0.00228051	1763.99849	35843.01	162.1222	8378.359
1280.0	0.64691	0.35309	7.09973	7.73035	-3.34607	25.66154	29.28066	1.29957	0.76949	17.39768	125.4566	6.16349	0.41135	8.32674	4560.3834	0.91038	0.00166226	1763.81811	35118.252	144.9516	8910.845
1275.0	0.68234	0.31766	7.11119	7.71788	-3.50202	25.29233	29.41149	1.28962	0.77542	21.7544	125.8805	7.73506	0.40622	8.42717	5968.23274	0.89664	0.00126606	1763.7099	34465.327	130.585	9371.889
1270.0	0.71349	0.28651	7.1216	7.70661	-3.64296	24.96579	29.5214	1.28067	0.78084	26.25744	126.30492	9.36647	0.40167	8.52957	7552.50824	0.88301	9.97249E-4	1763.66693	33872.871	118.4912	9772.854
1265.0	0.741	0.259	7.13113	7.69632	-3.77161	24.67407	29.61269	1.27259	0.7858	30.82127	126.72912	11.02636	0.39762	8.63416	9308.54407	0.86949	8.06499E-4	1763.68469	33331.605	108.2532	10123.017
1260.0	0.76537	0.23463	7.13992	7.68682	-3.89037	24.41029	29.68756	1.26525	0.79036	35.38145	127.1523	12.69074	0.39399	8.74117	11235.03367	0.85606	6.66035E-4	1763.75945	32833.903	99.5404	10429.998
1255.0	0.78704	0.21296	7.14803	7.6781	-3.99941	24.17426	29.74771	1.25857	0.79455	39.88275	127.5751	14.33879	0.39073	8.85045	13332.18237	0.84273	5.59437E-4	1763.88542	32373.466	92.0874	10700.1
1250.0	0.80638	0.19362	7.15557	7.67002	-4.10044	23.961	29.79477	1.25247	0.79842	44.28761	127.99687	15.95613	0.38779	8.9623	15603.30925	0.82949	4.76445E-4	1764.05951	31945.052	85.6828	10938.559
1245.0	0.82369	0.17631	7.16263	7.66245	-4.19501	23.76606	29.83033	1.24687	0.80201	48.57218	128.41728	17.53339	0.38513	9.07694	18054.98347	0.81632	4.10397E-4	1764.27938	31544.283	80.1538	11149.753
1240.0	0.83924	0.16076	7.16923	7.65539	-4.28337	23.58881	29.8555	1.24172	0.80533	52.71417	128.83606	19.06175	0.38272	9.19413	20694.54907	0.80326	3.56872E-4	1764.54108	31167.479	75.3608	11337.359
1235.0	0.85324	0.14676	7.17546	7.64873	-4.36663	23.42605	29.87152	1.23695	0.80844	56.70498	129.25334	20.53751	0.38052	9.31434	23533.15551	0.79028	3.12789E-4	1764.84282	30811.535	71.1888	11504.481
1230.0	0.86587	0.13413	7.18134	7.64244	-4.44519	23.27668	29.87922	1.23253	0.81134	60.53557	129.6688	21.95683	0.37851	9.43762	26582.55808	0.77737	2.75989E-4	1765.18193	30473.818	67.5434	11653.751
1225.0	0.8773	0.1227	7.18692	7.63651	-4.51939	23.13984	29.87946	1.22843	0.81405	64.19958	130.0826	23.31689	0.37668	9.56405	29856.04615	0.76454	2.44912E-4	1765.556	30152.084	64.3468	11787.408
1220.0	0.88766	0.11234	7.19223	7.63085	-4.59013	23.01277	29.87312	1.22458	0.8166	67.70542	130.49434	24.62044	0.37498	9.69393	33373.28323	0.75178	2.18369E-4	1765.96439	29844.417	61.5334	11907.37
1215.0	0.89709	0.10291	7.1973	7.62546	-4.65759	22.89508	29.86084	1.22099	0.81901	71.05293	130.90415	25.86707	0.37342	9.82719	37152.32503	0.7391	1.955E-4	1766.4052	29549.169	59.0496	12015.28
1210.0	0.90567	0.0943313	7.20215	7.62029	-4.72213	22.78568	29.84308	1.21761	0.82128	74.24219	131.31172	27.0565	0.37198	9.96425	41212.44745	0.72649	1.75648E-4	1766.87754	29264.923	56.8492	12112.555
1205.0	0.9135	0.0864959	7.20681	7.61534	-4.78407	22.68371	29.8205	1.21442	0.82344	77.28451	131.71724	28.19267	0.37065	10.10534	45580.18109	0.71393	1.58281E-4	1767.38011	28990.453	54.894	12200.42
1204.84	0.91373	0.0862677	7.20695	7.6152	-4.78586	22.68102	29.81966	1.21433	0.8235	77.375	131.73004	28.22648	0.37061	10.1097	45721.81501	0.71354	1.57774E-4	1767.39608	28982.038	 	12202.973
1200.0	0.9219	0.0781029	7.21147	7.61035	-4.84651	22.57928	29.80106	1.2111	0.82569	80.63895	132.13993	29.44708	0.36922	10.25268	50536.95001	0.70129	1.42274E-4	1768.49844	28707.488	56.593	12297.142
1195.0	0.92952	0.0704827	7.21595	7.60555	-4.90653	22.48178	29.77669	1.20798	0.82783	83.81826	132.55824	30.63762	0.3679	10.40356	55865.66848	0.68877	1.28266E-4	1769.64515	28434.685	54.5606	12384.063
1190.0	0.9364	0.0635959	7.22025	7.60093	-4.96429	22.39076	29.74758	1.20505	0.82984	86.81333	132.97174	31.76061	0.36668	10.55806	61587.24499	0.67638	1.15954E-4	1770.80079	28171.492	52.6386	12461.733
1189.15	0.93747	0.0625263	7.22096	7.60017	-4.97379	22.37618	29.74199	1.20457	0.83017	87.29187	133.04114	31.94018	0.36649	10.58449	62590.78386	0.6743	1.14029E-4	1770.99729	28128.126	 	12473.718
1187.42	0.94021	0.0597941	7.22267	7.59841	-4.99574	22.33818	29.73229	1.20354	0.83088	88.49124	133.20492	32.39025	0.36602	10.60467	64832.81064	0.67222	1.09955E-4	1771.33399	28027.038	 	12510.511
1185.0	0.94788	0.0521232	7.22591	7.59489	-5.03979	22.24111	29.77746	1.19972	0.83353	90.98035	133.54148	33.33187	0.36477	10.69825	69223.40137	0.66524	1.0281E-4	1772.06754	27817.033	70.8918	12631.026
1180.0	0.96247	0.0375311	7.23208	7.58812	-5.12447	22.06012	29.85731	1.19241	0.83864	95.91419	134.21187	35.20116	0.36237	10.8996	78862.63476	0.65071	8.99344E-5	1773.57906	27406.567	82.0932	12856.683
1175.0	0.97435	0.0256497	7.23738	7.58226	-5.19774	21.91507	29.9102	1.18621	0.84302	100.61345	134.82646	36.9796	0.36039	11.11268	88880.65582	0.63604	7.9523E-5	1775.08704	27041.638	72.9858	13037.156
1170.0	0.98401	0.0159949	7.24198	7.57712	-5.26195	21.79869	29.94357	1.18079	0.84689	106.23401	135.39418	39.09264	0.35875	11.33831	99317.50316	0.62123	7.09206E-5	1776.5955	26713.495	65.6286	13181.197
1168.38	0.98649	0.0135116	7.24329	7.57563	-5.28053	21.76811	29.94798	1.17929	0.84796	108.15145	135.56469	39.811	0.35831	11.41429	102698.5013	0.6164	6.85088E-5	1777.08597	26617.231	 	13217.878
1168.38	0.98649	0.0135116	7.24329	7.57563	-5.28053	21.76811	29.94798	1.17929	0.84796	108.15145	135.56469	39.811	0.35831	11.41429	102698.5013	0.6164	6.85088E-5	1777.08597	26617.231	 	13217.878
1165.0	1.0	0.0	7.24924	7.56912	-5.36197	21.56246	29.99495	1.17469	0.85129	117.67255	136.28637	43.3865	0.3561	 	113878.0103	 	6.16384E-5	 	26235.368	95.6254	13475.571
1160.0	1.0	0.0	7.25181	7.56643	-5.39561	21.54538	29.91539	1.17372	0.85199	118.14657	136.64796	43.56761	0.3559	 	122569.6881	 	5.70683E-5	 	26027.81633	41.51033	 
1155.0	1.0	0.0	7.25438	7.56376	-5.42906	21.52875	29.83584	1.17274	0.8527	118.61994	137.0083	43.74852	0.3557	 	131993.3229	 	5.28091E-5	 	25854.07071	34.74912	 
1150.0	1.0	0.0	7.25694	7.56109	-5.46244	21.51223	29.75628	1.17176	0.85342	119.09247	137.36686	43.92917	0.35551	 	142215.4839	 	4.88417E-5	 	25680.59077	34.69599	 
1145.0	1.0	0.0	7.2595	7.55842	-5.49574	21.49582	29.67672	1.17077	0.85414	119.56415	137.72365	44.10955	0.35531	 	153309.9089	 	4.5148E-5	 	25507.37598	34.64296	 
1140.0	1.0	0.0	7.26205	7.55576	-5.52896	21.47952	29.59715	1.16978	0.85486	120.03498	138.07867	44.28966	0.35511	 	165357.7039	 	4.1711E-5	 	25334.42578	34.59004	 
1135.0	1.0	0.0	7.2646	7.55311	-5.56211	21.46332	29.51756	1.16878	0.85559	120.50497	138.43193	44.46951	0.35492	 	178448.1071	 	3.85144E-5	 	25161.73964	34.53723	 
1130.0	1.0	0.0	7.26714	7.55047	-5.59519	21.44724	29.43797	1.16778	0.85632	120.97411	138.78344	44.64909	0.35472	 	192679.3918	 	3.55431E-5	 	24989.31703	34.48452	 
1125.0	1.0	0.0	7.26968	7.54783	-5.62819	21.43127	29.35837	1.16678	0.85706	121.44241	139.13322	44.82841	0.35453	 	208159.831	 	3.27826E-5	 	24817.15739	34.43193	 
1120.0	1.0	0.0	7.27222	7.5452	-5.66111	21.41542	29.27876	1.16577	0.85781	121.90986	139.48126	45.00746	0.35433	 	225008.7937	 	3.02193E-5	 	24645.26019	34.37944	 
1115.0	1.0	0.0	7.27476	7.54257	-5.69396	21.39968	29.19914	1.16475	0.85855	122.37646	139.82757	45.18624	0.35413	 	243357.9644	 	2.78405E-5	 	24473.62487	34.32706	 
1110.0	1.0	0.0	7.27728	7.53995	-5.72674	21.38406	29.11951	1.16373	0.85931	122.84223	140.17218	45.36476	0.35394	 	263352.7001	 	2.56341E-5	 	24302.25091	34.27479	 
1105.01	1.0	0.0	7.2798	7.53734	-5.75936	21.36859	29.04005	1.1627	0.86006	123.30605	140.51427	45.54259	0.35374	 	285100.3675	 	2.35933E-5	 	24131.53751	 	 
1105.0	1.0	0.0	7.27982	7.53732	-5.75952	21.36824	29.03943	1.16272	0.86005	123.30862	140.51587	45.54359	0.35374	 	285156.6801	 	2.35885E-5	 	24130.72766	34.30465	 
1100.0	1.0	0.0	7.28533	7.53162	-5.83089	21.21655	28.78917	1.16857	0.85575	124.34771	141.13618	45.9472	0.35316	 	310424.0979	 	2.15898E-5	 	23788.40834	68.46386	 
1095.0	1.0	0.0	7.29074	7.52603	-5.90076	21.06873	28.55072	1.17404	0.85176	125.34593	141.72075	46.33551	0.35259	 	338277.1702	 	1.974E-5	 	23453.38435	67.0048	 
1090.0	1.0	0.0	7.29604	7.52056	-5.96912	20.92489	28.32541	1.17905	0.84814	126.31404	142.28276	46.71244	0.35204	 	369005.7151	 	1.80301E-5	 	23125.37523	65.60182	 
1085.0	1.0	0.0	7.30124	7.51521	-6.03602	20.78491	28.11061	1.18371	0.8448	127.25415	142.82449	47.07876	0.3515	 	402934.3691	 	1.64513E-5	 	22804.10325	64.2544	 
1080.0	1.0	0.0	7.30633	7.50997	-6.10151	20.64864	27.90493	1.18804	0.84172	128.1678	143.34747	47.43504	0.35098	 	440427.0133	 	1.49954E-5	 	22489.29389	62.96187	 
1075.0	1.0	0.0	7.31132	7.50484	-6.16565	20.51596	27.70756	1.19208	0.83887	129.05637	143.85302	47.78179	0.35048	 	481892.1699	 	1.36545E-5	 	22180.67594	61.72359	 
1071.49	1.0	0.0	7.31478	7.5013	-6.20994	20.42479	27.5735	1.19476	0.83699	129.66651	144.1985	48.02002	0.35013	 	513652.8321	 	1.27768E-5	 	21967.36433	 	 
1070.0	1.0	0.0	7.31622	7.49982	-6.22846	20.38682	27.51789	1.19585	0.83623	129.92128	144.34249	48.11953	0.34998	 	527792.6067	 	1.24208E-5	 	21877.92612	60.54996	 
1065.0	1.0	0.0	7.32102	7.4949	-6.28997	20.26114	27.33541	1.19935	0.83379	130.76387	144.81713	48.44876	0.34951	 	578650.0729	 	1.12869E-5	 	21580.70713	59.4438	 
1060.0	1.0	0.0	7.32574	7.49007	-6.3503	20.13858	27.15966	1.2026	0.83153	131.58505	145.27749	48.76982	0.34904	 	635035.4817	 	1.02463E-5	 	21288.91705	58.35802	 
1055.0	1.0	0.0	7.33037	7.48534	-6.40949	20.01899	26.99025	1.20561	0.82946	132.38594	145.72447	49.08314	0.34859	 	697601.8523	 	9.29236E-6	 	21002.30572	57.32227	 
1050.0	1.0	0.0	7.33493	7.48069	-6.46761	19.90223	26.82677	1.20839	0.82755	133.1676	146.15891	49.38911	0.34815	 	767085.1993	 	8.41884E-6	 	20720.63043	56.33506	 
1045.0	1.0	0.0	7.33941	7.47613	-6.52468	19.78815	26.66888	1.21095	0.8258	133.93105	146.58157	49.68811	0.34772	 	844315.8382	 	7.61985E-6	 	20443.65641	55.3948	 
1040.0	1.0	0.0	7.34381	7.47164	-6.58078	19.67663	26.51621	1.2133	0.8242	134.67726	146.99317	49.98052	0.3473	 	930231.3544	 	6.88985E-6	 	20171.15715	54.49985	 
1035.0	1.0	0.0	7.34815	7.46723	-6.63593	19.56753	26.36846	1.21545	0.82274	135.40714	147.39438	50.26667	0.34689	 	1025891.582	 	6.22362E-6	 	19902.91473	53.64848	 
1030.0	1.0	0.0	7.35242	7.46289	-6.69018	19.46071	26.22532	1.21742	0.82141	136.12156	147.7858	50.5469	0.34649	 	1132495.591	 	5.61623E-6	 	19638.71996	52.83895	 
1025.0	1.0	0.0	7.35663	7.45862	-6.74358	19.35606	26.0865	1.2192	0.82021	136.82135	148.16801	50.82152	0.3461	 	1251401.412	 	5.06308E-6	 	19378.37249	52.06949	 
1020.0	1.0	0.0	7.36078	7.45441	-6.79616	19.25346	25.95174	1.22081	0.81913	137.50729	148.54153	51.09083	0.34571	 	1384148.581	 	4.55987E-6	 	19121.6808	51.33834	 
1015.0	1.0	0.0	7.36488	7.45027	-6.84797	19.15279	25.8208	1.22226	0.81816	138.18011	148.90686	51.35511	0.34534	 	1532484.304	 	4.10258E-6	 	18868.46216	50.64373	 
1010.0	1.0	0.0	7.36892	7.44619	-6.89904	19.05393	25.69343	1.22355	0.81729	138.84051	149.26444	51.61462	0.34497	 	1698393.346	 	3.68745E-6	 	18618.54243	49.98395	 
1005.0	1.0	0.0	7.37291	7.44216	-6.94941	18.95678	25.56942	1.22469	0.81653	139.48913	149.6147	51.86962	0.34461	 	1884132.741	 	3.31098E-6	 	18371.756	49.35729	 
1000.0	1.0	0.0	7.37685	7.43818	-6.9991	18.86123	25.44857	1.22569	0.81586	140.1266	149.95802	52.12034	0.34426	 	2092271.77	 	2.96994E-6	 	18127.9454	48.76212	 
995.0	1.0	0.0	7.38074	7.43426	-7.04816	18.76719	25.33069	1.22656	0.81529	140.75349	150.29478	52.367	0.34391	 	2325738.452	 	2.66132E-6	 	17886.9612	48.19684	 
990.0	1.0	0.0	7.38459	7.43039	-7.0966	18.67456	25.21561	1.2273	0.8148	141.37035	150.62529	52.60982	0.34357	 	2587873.1	 	2.38231E-6	 	17648.66159	47.65992	 
985.0	1.0	0.0	7.3884	7.42656	-7.14447	18.58325	25.10315	1.22792	0.81438	141.97768	150.94988	52.84898	0.34324	 	2882490.375	 	2.13035E-6	 	17412.91213	47.14989	 
980.0	1.0	0.0	7.39216	7.42277	-7.19179	18.49317	24.99317	1.22842	0.81405	142.57597	151.26883	53.08467	0.34291	 	3213951.802	 	1.90305E-6	 	17179.58547	46.66533	 
975.0	1.0	0.0	7.39589	7.41903	-7.23857	18.40425	24.88553	1.22881	0.81379	143.16567	151.58242	53.31707	0.34259	 	3587249.514	 	1.69821E-6	 	16948.56092	46.20491	 
970.0	1.0	0.0	7.39958	7.41533	-7.28486	18.31639	24.7801	1.2291	0.8136	143.74719	151.89088	53.54633	0.34227	 	4008103.87	 	1.51381E-6	 	16719.72424	45.76734	 
965.0	1.0	0.0	7.40324	7.41167	-7.33066	18.22953	24.67674	1.22928	0.81348	144.32093	152.19446	53.77262	0.34196	 	4483077.406	 	1.34798E-6	 	16492.96721	45.35141	 
960.0	1.0	0.0	7.40686	7.40804	-7.37601	18.14359	24.57536	1.22937	0.81343	144.88727	152.49337	53.99607	0.34165	 	5019707.662	 	1.19901E-6	 	16268.1874	44.95596	 
955.0	1.0	0.0	7.41046	7.40445	-7.42092	18.0585	24.47585	1.22936	0.81343	145.44654	152.78781	54.21682	0.34134	 	5626661.61	 	1.06534E-6	 	16045.28782	44.57992	 
950.0	1.0	0.0	7.41402	7.40089	-7.46542	17.9742	24.3781	1.22927	0.81349	145.99908	153.07797	54.435	0.34104	 	6313917.756	 	9.45513E-7	 	15824.17663	44.22224	 
945.0	1.0	0.0	7.41756	7.39736	-7.50951	17.89062	24.28203	1.22908	0.81361	146.54519	153.36402	54.65071	0.34074	 	7092977.513	 	8.38222E-7	 	15604.76686	43.88195	 
940.0	1.0	0.0	7.42106	7.39387	-7.55322	17.8077	24.18755	1.22882	0.81379	147.08517	153.64614	54.86409	0.34045	 	7977115.109	 	7.42259E-7	 	15386.97611	43.55815	 
935.0	1.0	0.0	7.42454	7.3904	-7.59657	17.72539	24.09459	1.22848	0.81402	147.61927	153.92446	55.07522	0.34016	 	8981668.218	 	6.56524E-7	 	15170.72635	43.24995	 
930.0	1.0	0.0	7.428	7.38696	-7.63957	17.64362	24.00306	1.22806	0.81429	148.14775	154.19914	55.28421	0.33987	 	1.012438297E7	 	5.80013E-7	 	14955.9436	42.95655	 
925.0	1.0	0.0	7.43143	7.38355	-7.68224	17.56235	23.91292	1.22757	0.81462	148.67084	154.47032	55.49114	0.33959	 	1.142581636E7	 	5.11812E-7	 	14742.55776	42.67717	 
920.0	1.0	0.0	7.43484	7.38016	-7.72459	17.48153	23.82408	1.227	0.815	149.18878	154.73811	55.69612	0.33931	 	1.290981374E7	 	4.51089E-7	 	14530.50237	42.41108	 
915.0	1.0	0.0	7.43823	7.3768	-7.76663	17.4011	23.7365	1.22637	0.81542	149.70177	155.00264	55.89921	0.33903	 	1.460407018E7	 	3.97086E-7	 	14319.7144	42.15759	 
910.0	1.0	0.0	7.4416	7.37346	-7.80837	17.32102	23.65011	1.22567	0.81588	150.21001	155.26402	56.10049	0.33876	 	1.654079458E7	 	3.49116E-7	 	14110.13408	41.91606	 
905.0	1.0	0.0	7.44495	7.37014	-7.84983	17.24124	23.56488	1.2249	0.81639	150.71368	155.52236	56.30003	0.33849	 	1.875749545E7	 	3.06558E-7	 	13901.70471	41.68587	 
900.0	1.0	0.0	7.44828	7.36685	-7.89103	17.16172	23.48075	1.22407	0.81694	151.21295	155.77776	56.49791	0.33822	 	2.129791312E7	 	2.68846E-7	 	13694.37248	41.46645	 
895.0	1.0	0.0	7.45159	7.36357	-7.93196	17.08242	23.39768	1.22318	0.81754	151.708	156.03032	56.69418	0.33795	 	2.421312267E7	 	2.35469E-7	 	13488.08636	41.25722	 
890.0	1.0	0.0	7.45488	7.36032	-7.97264	17.0033	23.31563	1.22224	0.81817	152.19897	156.28012	56.88891	0.33769	 	2.756284864E7	 	2.05967E-7	 	13282.79792	41.05769	 
885.0	1.0	0.0	7.45816	7.35709	-8.01308	16.92432	23.23456	1.22123	0.81885	152.68601	156.52726	57.08215	0.33742	 	3.141702919E7	 	1.79923E-7	 	13078.46122	40.86734	 
880.0	1.0	0.0	7.46142	7.35387	-8.05328	16.84545	23.15444	1.22016	0.81956	153.16926	156.77182	57.27395	0.33716	 	3.585767193E7	 	1.56961E-7	 	12875.03248	40.68575	 
