T (C)	Fraction solid (wt)-TOTAL	Fraction liquid (wt)-LIQUID	Density (g/(cm)^3)-TOTAL	Molar volume (cm^3)-TOTAL	Volume change (%)-  	Average expansion coeff. (10e-6 1/K)-  	Thermal conductivity (W/(m*K))-TOTAL	Electrical resistivity (10e-6 Ohm*m)-TOTAL	Electrical conductivity (10e6 1/(Ohm*m))-TOTAL	Young's modulus (GPa)-TOTAL	Bulk modulus (GPa)-TOTAL	Shear modulus(GPa)-TOTAL	Poisson's ratio-TOTAL	Liquid viscosity (mPa s)-  	Total viscosity (mPa s)-  	Liquid diffusivity (10e-9 (m^2)/s)-  	Total diffusivity (10e-9 (m^2)/s)-  	Surface Tension (mN/m)-  	Enthalpy (J/mole)-TOTAL	Specific heat (J/(mole K))-TOTAL	Latent heat (J/mole)-TOTAL
1400.0	0.0	1.0	7.54606	7.84244	0.0	28.84529	28.91834	1.41751	0.70546	0.0	124.82418	0.0	0.5	7.83838	7.83838	1.04183	1.04183	1804.4736	53007.485	 	0.0
1395.0	0.0	1.0	7.55012	7.83822	-0.0537835	28.80413	28.83804	1.41721	0.70561	0.0	124.97823	0.0	0.5	7.92308	7.92308	1.02761	1.02761	1807.90032	52802.027	41.0916	0.0
1390.0	0.0	1.0	7.55418	7.83402	-0.10741	28.7631	28.75774	1.41691	0.70576	0.0	125.13229	0.0	0.5	8.00921	8.00921	1.01351	1.01351	1811.36567	52597.051	40.9952	0.0
1385.0	0.0	1.0	7.55822	7.82982	-0.16088	28.7222	28.67744	1.41661	0.70591	0.0	125.28634	0.0	0.5	8.09681	8.09681	0.99953	0.99953	1814.86976	52392.554	40.8994	0.0
1380.0	0.0	1.0	7.56226	7.82564	-0.2142	28.68142	28.59714	1.4163	0.70606	0.0	125.44039	0.0	0.5	8.1859	8.1859	0.98567	0.98567	1818.41267	52188.535	40.8038	0.0
1375.0	0.0	1.0	7.56629	7.82147	-0.26736	28.64077	28.51684	1.41599	0.70622	0.0	125.59445	0.0	0.5	8.27652	8.27652	0.97193	0.97193	1821.99447	51984.99	40.709	0.0
1370.0	0.0	1.0	7.57031	7.81732	-0.32036	28.60025	28.43654	1.41568	0.70637	0.0	125.7485	0.0	0.5	8.3687	8.3687	0.95831	0.95831	1825.61519	51781.917	40.6146	0.0
1365.0	0.0	1.0	7.57433	7.81317	-0.37321	28.55987	28.35625	1.41537	0.70653	0.0	125.90255	0.0	0.5	8.46249	8.46249	0.94481	0.94481	1829.27485	51579.313	40.5208	0.0
1364.52	0.0	1.0	7.57472	7.81277	-0.37828	28.55599	28.34852	1.41534	0.70654	0.0	125.91737	0.0	0.5	8.47159	8.47159	0.94351	0.94351	1829.62895	51559.846	40.47277	0.0010
1360.0	0.14084	0.85916	7.60966	7.77686	-0.83628	27.37302	28.82862	1.38793	0.7205	0.040094	127.71771	0.0135353	0.48109	8.56107	20.97916	0.93108	0.37995	1828.18616	49302.988	499.41425	2074.184
1355.0	0.26802	0.73198	7.64177	7.7442	-1.2527	26.3081	29.26434	1.36308	0.73363	0.53624	129.39776	0.18317	0.4638	8.65998	160.58011	0.91762	0.0494868	1826.65458	47240.663	412.465	3934.834
1350.0	0.37128	0.62872	7.66836	7.71733	-1.59531	25.44289	29.61997	1.34258	0.74483	2.00759	130.81505	0.69246	0.4496	8.75893	592.77496	0.90447	0.0133646	1825.20575	45540.834	339.9658	5433.45
1345.0	0.45607	0.54393	7.69069	7.69494	-1.88082	24.73249	29.91245	1.32536	0.75451	4.63674	132.02916	1.61243	0.43781	8.85807	1412.83395	0.89159	0.00559003	1823.8451	44120.406	284.0856	6653.122
1340.0	0.52642	0.47358	7.70967	7.67601	-2.1222	24.14186	30.15337	1.31071	0.76295	8.33216	133.08384	2.91757	0.42793	8.95741	2647.96379	0.87898	0.00297337	1822.57673	42918.096	240.462	7655.135
1335.0	0.58528	0.41472	7.72599	7.6598	-2.32883	23.64569	30.35121	1.29813	0.77034	12.87404	134.01195	4.53446	0.41958	9.05699	4286.65579	0.86662	0.00183103	1821.40267	41888.039	206.0114	8485.347
1330.0	0.63495	0.36505	7.74017	7.6458	-2.50733	23.22608	30.51239	1.28725	0.77685	18.0076	134.83803	6.37452	0.41247	9.15703	6299.55239	0.85449	0.00124208	1820.32318	40995.448	178.5182	9178.543
1325.0	0.67715	0.32285	7.75262	7.63359	-2.66312	22.86843	30.64255	1.27779	0.7826	23.50244	135.58225	8.35572	0.40637	9.2575	8655.32498	0.84258	9.01199E-4	1819.33784	40213.618	156.366	9761.428
1320.0	0.71325	0.28675	7.76365	7.62276	-2.80115	22.55915	30.74608	1.2695	0.78771	29.16531	136.2582	10.40801	0.4011	9.35855	11324.80094	0.83087	6.86614E-4	1818.44679	39521.819	138.3598	10254.728
1315.0	0.7443	0.2557	7.77351	7.61314	-2.92388	22.29172	30.82689	1.2622	0.79227	34.84671	136.87871	12.47625	0.39652	9.46026	14285.74208	0.81936	5.42595E-4	1817.64709	38903.798	123.6042	10674.692
1310.0	0.77116	0.22884	7.7824	7.60452	-3.03374	22.05956	30.88815	1.25573	0.79635	40.43429	137.45315	14.51832	0.39253	9.56268	17521.80301	0.80803	4.40991E-4	1816.93629	38346.69	111.4216	11034.185
1305.0	0.7945	0.2055	7.79049	7.59669	-3.13357	21.85483	30.93264	1.24996	0.80002	45.85697	137.98846	16.50703	0.38901	9.66592	21026.3773	0.79688	3.66328E-4	1816.31333	37840.225	101.293	11343.474
1300.0	0.8149	0.1851	7.79789	7.58955	-3.22465	21.6741	30.96264	1.2448	0.80334	51.06284	138.491	18.42213	0.38591	9.7701	24797.0602	0.78588	3.0964E-4	1815.77482	37376.138	92.8174	11610.821
1295.0	0.83279	0.16721	7.80471	7.58299	-3.30823	21.51396	30.98013	1.24014	0.80636	56.02107	138.96589	20.25114	0.38316	9.87525	28837.62423	0.77504	2.65409E-4	1815.31787	36947.73	85.6816	11842.922
1290.0	0.84855	0.15145	7.81104	7.57694	-3.38549	21.37119	30.98672	1.23592	0.80911	60.71621	139.417	21.98738	0.38071	9.98151	33156.98872	0.76435	2.30098E-4	1814.93981	36549.532	79.6396	12045.245
1285.0	0.86249	0.13751	7.81696	7.5713	-3.45738	21.24317	30.9839	1.23208	0.81164	65.14493	139.84781	23.62876	0.37851	10.08898	37769.53694	0.75379	2.01351E-4	1814.63786	36177.052	74.496	12222.28
1280.0	0.87485	0.12515	7.82251	7.56602	-3.52473	21.12765	30.97288	1.22856	0.81396	69.31246	140.26097	25.17646	0.37653	10.19768	42694.60791	0.74336	1.77553E-4	1814.40927	35826.576	70.0952	12377.737
1275.0	0.88586	0.11414	7.82775	7.56105	-3.5881	21.02304	30.9547	1.22533	0.81611	73.22648	140.65898	26.63269	0.37475	10.30773	47954.25489	0.73305	1.5757E-4	1814.25121	35495.018	66.3116	12514.701
1270.0	0.8957	0.1043	7.83272	7.55636	-3.64786	20.92844	30.9301	1.22234	0.8181	76.89152	141.04363	27.99859	0.37313	10.41933	53570.26178	0.72286	1.40595E-4	1814.16039	35179.799	63.0438	12635.749
1265.0	0.90452	0.0954777	7.83745	7.55189	-3.70479	20.84159	30.9	1.21957	0.81996	80.32882	141.41649	29.28162	0.37166	10.53239	59576.67073	0.71278	1.26011E-4	1814.13537	34878.753	60.2092	12743.042
1260.0	0.91244	0.0875591	7.84199	7.54764	-3.75909	20.76198	30.86506	1.21698	0.82171	83.55217	141.77924	30.48652	0.37031	10.64717	66006.94726	0.70281	1.13366E-4	1814.17284	34590.054	57.7398	12838.408
1255.0	0.91958	0.080417	7.84634	7.54356	-3.81107	20.68874	30.82573	1.21456	0.82334	86.571	142.13278	31.61649	0.36908	10.76364	72894.76539	0.69294	1.02319E-4	1814.27044	34312.152	55.5804	12923.391
1250.0	0.92604	0.0739635	7.85053	7.53965	-3.86087	20.62155	30.78256	1.21228	0.82489	89.40204	142.47832	32.67748	0.36795	10.88199	80282.55658	0.68316	9.25994E-5	1814.42479	34043.73	53.6844	12999.307
1245.0	0.93188	0.0681167	7.85458	7.53588	-3.909	20.55891	30.73595	1.21014	0.82635	92.05909	142.81635	33.67445	0.3669	11.00229	88214.52301	0.67347	8.39965E-5	1814.6354	33783.661	52.0138	13067.281
1240.0	0.93719	0.0628067	7.8585	7.53223	-3.95556	20.50058	30.68629	1.2081	0.82774	94.55562	143.14786	34.61224	0.36593	11.12461	96741.02809	0.66387	7.6341E-5	1814.89938	33530.98	50.5362	13128.277
1235.0	0.94203	0.0579726	7.86232	7.52869	-4.00061	20.44643	30.63391	1.20617	0.82907	96.90377	143.47354	35.49521	0.36503	11.24903	105915.9838	0.65436	6.94976E-5	1815.21383	33284.856	49.2248	13183.122
1230.0	0.94644	0.053563	7.86603	7.52526	-4.0444	20.39572	30.57907	1.20433	0.83034	99.11497	143.79386	36.32752	0.36419	11.37572	115798.4575	0.64493	6.33558E-5	1815.57748	33044.568	48.0576	13232.535
1229.35	0.94697	0.0530299	7.8665	7.52482	-4.04999	20.38934	30.57177	1.2041	0.8305	99.38728	143.83481	36.43008	0.36408	11.39227	117125.039	0.64371	6.26113E-5	1815.62829	33014.042	 	13238.447
1225.0	0.95056	0.049444	7.8698	7.52189	-4.08739	20.34706	30.5219	1.20257	0.83155	101.21584	144.11219	37.11907	0.36339	11.47415	126460.9562	0.63727	5.7821E-5	1815.12172	32806.742	47.5652	13279.889
1220.0	0.95434	0.0456635	7.87349	7.51859	-4.12943	20.30097	30.46278	1.20088	0.83272	103.20215	144.42535	37.86817	0.36265	11.57189	137969.5848	0.62978	5.2821E-5	1814.6299	32573.515	46.6454	13323.043
1215.0	0.95779	0.0422136	7.8771	7.51538	-4.17038	20.25792	30.40178	1.19926	0.83385	105.07328	144.73343	38.57445	0.36195	11.67353	150392.046	0.6222	4.82957E-5	1814.22431	32344.998	45.7034	13361.887
1210.0	0.96094	0.0390559	7.88062	7.51224	-4.21043	20.21733	30.33912	1.1977	0.83493	106.83989	145.03689	39.24186	0.3613	11.77914	163813.9569	0.61455	4.41897E-5	1813.90002	32120.677	44.8642	13396.928
1205.0	0.96384	0.0361602	7.88408	7.50916	-4.24974	20.17876	30.27496	1.19619	0.83599	108.51079	145.33621	39.87365	0.36068	11.88878	178328.8333	0.60683	4.04561E-5	1813.65209	31900.115	44.1124	13428.606
1200.0	0.9665	0.0334963	7.88747	7.50613	-4.28831	20.14218	30.20945	1.19473	0.83701	110.09567	145.63174	40.4734	0.3601	12.00232	194041.6473	0.59906	3.70543E-5	1813.47487	31682.928	43.4374	13457.3
1195.13	0.96889	0.0311068	7.89072	7.50324	-4.32518	20.10842	30.14451	1.19335	0.83798	111.56028	145.91607	41.02807	0.35956	12.11675	210586.9047	0.59144	3.40303E-5	1813.36498	31474.511	 	13482.659
1195.0	0.96897	0.0310276	7.89081	7.50316	-4.32625	20.10729	30.1428	1.19331	0.83801	111.60788	145.92431	41.04609	0.35954	12.11974	211076.7369	0.59124	3.39482E-5	1813.36058	31468.557	42.8742	13483.568
1190.0	0.97183	0.0281715	7.89417	7.50012	-4.36492	20.06979	30.07839	1.19179	0.83907	113.33836	146.22725	41.70168	0.35892	12.23235	230117.839	0.5838	3.10331E-5	1813.22426	31248.096	44.0922	13516.312
1185.0	0.97442	0.025575	7.89748	7.49714	-4.40296	20.03399	30.01253	1.19033	0.84011	114.96418	146.52527	42.31813	0.35833	12.34894	250737.5514	0.57631	2.83837E-5	1813.15194	31031.452	43.3288	13545.625
1180.0	0.97679	0.0232067	7.90072	7.4942	-4.44046	19.99961	29.94538	1.1889	0.84111	116.49733	146.81879	42.89994	0.35778	12.46922	273092.4776	0.5688	2.59709E-5	1813.13898	30818.198	42.6508	13571.931
1175.59	0.97871	0.0212909	7.90355	7.49164	-4.47306	19.97056	29.88519	1.18768	0.84198	117.77637	147.07446	43.38568	0.35732	12.57865	294373.3686	0.56214	2.40203E-5	1813.17082	30632.712	 	13592.869
1175.0	0.97906	0.0209421	7.90398	7.49124	-4.4782	19.96416	29.87616	1.18756	0.84206	117.90383	147.11281	43.43511	0.35724	12.60273	297478.3306	0.56084	2.37599E-5	1813.14264	30605.13	42.6136	13598.433
1170.0	0.98192	0.0180814	7.90761	7.48789	-4.52095	19.91207	29.8005	1.18646	0.84284	118.96967	147.43378	43.84843	0.3566	12.80842	325080.3836	0.54992	2.16674E-5	1812.91701	30373.308	46.3644	13644.067
1165.0	0.98451	0.0154923	7.91114	7.48462	-4.56262	19.86307	29.72475	1.18536	0.84362	120.02945	147.74649	44.25858	0.356	13.01845	355029.4218	0.53918	1.97709E-5	1812.70982	30146.603	45.341	13684.962
1164.78	0.98461	0.0153875	7.91129	7.48448	-4.56441	19.861	29.72148	1.18532	0.84366	120.07616	147.76005	44.27661	0.35598	13.02772	356382.5809	0.53871	1.96929E-5	1812.70055	30136.925	 	13686.584
1160.0	0.99232	0.00768332	7.91839	7.47924	-4.63117	19.72529	29.63107	1.18498	0.8439	125.00888	148.3355	46.14536	0.35451	13.16116	396670.5733	0.53148	1.76339E-5	1815.22019	29851.578	59.005	13794.552
1150.0	1.0	0.0	7.92744	7.47102	-4.73602	19.55298	29.47385	1.18299	0.84532	131.64483	149.14025	48.65338	0.35288	 	479301.0428	 	1.4492E-5	 	29323.515	52.8063	13952.861
1145.0	1.0	0.0	7.92994	7.46868	-4.76587	19.54089	29.39242	1.1821	0.84595	132.03653	149.39718	48.80478	0.3527	 	518957.9261	 	1.33376E-5	 	29129.62892	38.77722	 
1140.0	1.0	0.0	7.93243	7.46633	-4.79587	19.52815	29.31097	1.1812	0.8466	132.42741	149.65234	48.95593	0.35252	 	562194.9124	 	1.22684E-5	 	28953.25943	35.2739	 
1135.0	1.0	0.0	7.93493	7.46398	-4.82582	19.51548	29.22951	1.1803	0.84724	132.81756	149.90613	49.10684	0.35233	 	609380.3895	 	1.12784E-5	 	28777.16227	35.21943	 
1130.0	1.0	0.0	7.93742	7.46163	-4.85571	19.50289	29.14804	1.1794	0.84789	133.20698	150.15854	49.25752	0.35215	 	660905.6839	 	1.03622E-5	 	28601.33699	35.16506	 
1125.0	1.0	0.0	7.93991	7.45929	-4.88555	19.49036	29.06658	1.17849	0.84854	133.59567	150.4096	49.40798	0.35196	 	717203.8725	 	9.51476E-6	 	28425.78312	35.11077	 
1120.0	1.0	0.0	7.9424	7.45696	-4.91533	19.4779	28.98511	1.17758	0.8492	133.98364	150.6593	49.5582	0.35178	 	778754.5651	 	8.7314E-6	 	28250.50023	35.05658	 
1115.0	1.0	0.0	7.94488	7.45463	-4.94506	19.46552	28.90363	1.17666	0.84986	134.37088	150.90765	49.70819	0.3516	 	846089.255	 	8.00768E-6	 	28075.48784	35.00248	 
1110.0	1.0	0.0	7.94737	7.4523	-4.97473	19.45322	28.82215	1.17573	0.85053	134.75739	151.15465	49.85795	0.35141	 	919797.3245	 	7.33946E-6	 	27900.74552	34.94846	 
1105.0	1.0	0.0	7.94984	7.44998	-5.00435	19.44098	28.74067	1.1748	0.85121	135.14317	151.40031	50.00747	0.35123	 	1000532.79	 	6.72283E-6	 	27726.2728	34.89454	 
1100.0	1.0	0.0	7.95232	7.44766	-5.03391	19.42883	28.65918	1.17387	0.85188	135.52823	151.64464	50.15677	0.35105	 	1089021.861	 	6.15415E-6	 	27552.06923	34.84071	 
1095.0	1.0	0.0	7.95479	7.44534	-5.06342	19.41675	28.57769	1.17293	0.85256	135.91256	151.88764	50.30583	0.35086	 	1186071.566	 	5.63001E-6	 	27378.13435	34.78698	 
1090.0	1.0	0.0	7.95726	7.44303	-5.09288	19.40475	28.4962	1.17199	0.85325	136.29616	152.12931	50.45466	0.35068	 	1292579.179	 	5.14723E-6	 	27204.4677	34.73333	 
1085.0	1.0	0.0	7.95972	7.44073	-5.12228	19.39284	28.4147	1.17104	0.85394	136.67903	152.36966	50.60326	0.3505	 	1409543.252	 	4.70279E-6	 	27031.06884	34.67977	 
1080.0	1.0	0.0	7.96219	7.43843	-5.15162	19.381	28.33319	1.17008	0.85464	137.06118	152.6087	50.75163	0.35031	 	1538075.571	 	4.29393E-6	 	26857.93729	34.62631	 
1075.0	1.0	0.0	7.96465	7.43613	-5.18091	19.36924	28.25169	1.16912	0.85534	137.4426	152.84643	50.89976	0.35013	 	1679415.133	 	3.91802E-6	 	26685.0726	34.57294	 
1070.0	1.0	0.0	7.9671	7.43384	-5.21014	19.35757	28.17017	1.16816	0.85605	137.82329	153.08286	51.04767	0.34995	 	1834943.559	 	3.57263E-6	 	26512.47432	34.51966	 
1065.0	1.0	0.0	7.96956	7.43155	-5.23932	19.34599	28.08865	1.16719	0.85676	138.20325	153.31799	51.19534	0.34976	 	2006202.673	 	3.25549E-6	 	26340.14197	34.46647	 
1060.0	1.0	0.0	7.97201	7.42927	-5.26845	19.33449	28.00713	1.16621	0.85748	138.58248	153.55182	51.34277	0.34958	 	2194914.416	 	2.96448E-6	 	26168.07512	34.41337	 
1055.0	1.0	0.0	7.97445	7.42699	-5.29751	19.32308	27.9256	1.16523	0.8582	138.96099	153.78437	51.48998	0.3494	 	2403003.032	 	2.69761E-6	 	25996.27327	34.36037	 
1050.0	1.0	0.0	7.9769	7.42471	-5.32653	19.31176	27.84407	1.16424	0.85893	139.33877	154.01563	51.63695	0.34922	 	2632621.075	 	2.45306E-6	 	25824.73599	34.30746	 
1046.9	1.0	0.0	7.97841	7.4233	-5.3445	19.30478	27.79348	1.16362	0.85938	139.57278	154.15847	51.72801	0.3491	 	2786943.308	 	2.31179E-6	 	25718.44802	 	 
1045.0	1.0	0.0	7.98024	7.4216	-5.36616	19.26151	27.72329	1.16489	0.85845	139.85526	154.32386	51.83821	0.34896	 	2895405.822	 	2.22199E-6	 	25608.30429	43.28634	 
1040.0	1.0	0.0	7.98502	7.41716	-5.42281	19.14821	27.54582	1.16795	0.8562	140.56632	154.7244	52.11626	0.34858	 	3203334.455	 	2.00078E-6	 	25321.23656	57.41354	 
1035.0	1.0	0.0	7.98973	7.41278	-5.47863	19.03684	27.37521	1.17076	0.85415	141.25201	155.10203	52.38478	0.34822	 	3546537.952	 	1.80028E-6	 	25038.5019	56.54693	 
1030.0	1.0	0.0	7.99438	7.40847	-5.53357	18.92765	27.20996	1.17336	0.85225	141.92032	155.46639	52.64672	0.34786	 	3929331.764	 	1.61869E-6	 	24759.93329	55.71372	 
1025.0	1.0	0.0	7.99896	7.40423	-5.58763	18.82066	27.04947	1.1758	0.85049	142.57397	155.82059	52.90306	0.3475	 	4356593.0	 	1.45434E-6	 	24485.37172	54.91232	 
1020.0	1.0	0.0	8.00347	7.40006	-5.64083	18.71581	26.89337	1.17807	0.84885	143.21441	156.16609	53.15436	0.34716	 	4833837.915	 	1.3057E-6	 	24214.66493	54.14136	 
1015.0	1.0	0.0	8.00791	7.39595	-5.69319	18.61305	26.74137	1.18018	0.84733	143.84265	156.50381	53.40097	0.34682	 	5367310.899	 	1.17138E-6	 	23947.66767	53.39945	 
1010.0	1.0	0.0	8.01229	7.39191	-5.74475	18.5123	26.59325	1.18215	0.84592	144.45943	156.8344	53.6432	0.34648	 	5964086.971	 	1.05007E-6	 	23684.24055	52.68542	 
1005.81	1.0	0.0	8.01592	7.38857	-5.78739	18.42928	26.47186	1.18369	0.84482	144.96835	157.10652	53.84313	0.34621	 	6519180.11	 	9.57524E-7	 	23465.9828	 	 
1005.0	1.0	0.0	8.01661	7.38793	-5.79552	18.41351	26.44879	1.18397	0.84461	145.06545	157.15842	53.88129	0.34616	 	6632197.385	 	9.40613E-7	 	23424.24556	51.999	 
1000.0	1.0	0.0	8.02086	7.38401	-5.84548	18.31682	26.30783	1.18566	0.84341	145.66138	157.47647	54.1155	0.34584	 	7380811.337	 	8.41903E-7	 	23167.5195	51.34521	 
995.0	1.0	0.0	8.02506	7.38015	-5.89471	18.22193	26.17016	1.18722	0.84231	146.24761	157.78868	54.34598	0.34552	 	8220213.449	 	7.52964E-7	 	22913.98289	50.70732	 
990.0	1.0	0.0	8.0292	7.37635	-5.94323	18.12877	26.0356	1.18865	0.84129	146.82462	158.09539	54.57291	0.34522	 	9162164.181	 	6.72889E-7	 	22663.51828	50.09292	 
985.0	1.0	0.0	8.03329	7.37259	-5.99108	18.03728	25.90399	1.18996	0.84037	147.39285	158.39688	54.79647	0.34491	 	1.022004536E7	 	6.0085E-7	 	22416.01364	49.50093	 
980.0	1.0	0.0	8.03732	7.36889	-6.03827	17.9474	25.77519	1.19115	0.83952	147.95271	158.69342	55.01681	0.34461	 	1.140909763E7	 	5.36091E-7	 	22171.36116	48.9305	 
979.01	1.0	0.0	8.03812	7.36816	-6.04757	17.92975	25.74993	1.19138	0.83937	148.06296	158.75175	55.06021	0.34456	 	1.166240023E7	 	5.24032E-7	 	22123.08666	 	 
978.99	1.0	0.0	8.03814	7.36814	-6.04785	17.92902	25.74934	1.19138	0.83936	148.06516	158.75288	55.06108	0.34455	 	1.166745263E7	 	5.23797E-7	 	22121.95172	 	 
975.0	1.0	0.0	8.04131	7.36523	-6.08492	17.85872	25.64895	1.19224	0.83876	148.50476	158.98541	55.23414	0.34432	 	1.27468837E7	 	4.77914E-7	 	21929.18476	48.43528	 
970.0	1.0	0.0	8.04525	7.36163	-6.13085	17.77192	25.52533	1.19321	0.83807	149.04916	159.27295	55.44853	0.34403	 	1.425300834E7	 	4.257E-7	 	21689.8462	47.86771	 
965.0	1.0	0.0	8.04914	7.35808	-6.17619	17.68653	25.40412	1.19408	0.83746	149.58627	159.55619	55.66011	0.34375	 	1.595016473E7	 	3.78874E-7	 	21453.07092	47.35506	 
960.0	1.0	0.0	8.05298	7.35456	-6.22097	17.60251	25.2852	1.19486	0.83692	150.11642	159.83534	55.86901	0.34347	 	1.786423767E7	 	3.36913E-7	 	21218.76749	46.86069	 
955.0	1.0	0.0	8.05678	7.3511	-6.26518	17.51979	25.16844	1.19553	0.83645	150.63992	160.11057	56.07536	0.34319	 	2.002484575E7	 	2.99343E-7	 	20986.84863	46.38377	 
950.0	1.0	0.0	8.06053	7.34767	-6.30887	17.43834	25.05374	1.19612	0.83604	151.15705	160.38204	56.27925	0.34292	 	2.246591437E7	 	2.65731E-7	 	20757.2304	45.92365	 
945.0	1.0	0.0	8.06425	7.34429	-6.35204	17.3581	24.94101	1.19661	0.83569	151.66808	160.64991	56.4808	0.34265	 	2.522633691E7	 	2.35686E-7	 	20529.83239	45.4796	 
940.0	1.0	0.0	8.06793	7.34094	-6.3947	17.27902	24.83014	1.19702	0.83541	152.17327	160.91432	56.68011	0.34239	 	2.835075185E7	 	2.08851E-7	 	20304.57787	45.05091	 
935.0	1.0	0.0	8.07156	7.33763	-6.43689	17.20105	24.72105	1.19735	0.83518	152.67286	161.17542	56.87726	0.34213	 	3.189043588E7	 	1.84904E-7	 	20081.39299	44.63697	 
930.0	1.0	0.0	8.07516	7.33436	-6.4786	17.12415	24.61365	1.19759	0.83501	153.16708	161.43331	57.07236	0.34187	 	3.590435874E7	 	1.63553E-7	 	19860.20714	44.23717	 
925.0	1.0	0.0	8.07873	7.33112	-6.51987	17.04828	24.50785	1.19777	0.83489	153.65615	161.68812	57.26547	0.34161	 	4.046040212E7	 	1.44533E-7	 	19640.95261	43.85091	 
920.0	1.0	0.0	8.08226	7.32792	-6.56069	16.97339	24.40358	1.19786	0.83482	154.14026	161.93997	57.45668	0.34136	 	4.563679131E7	 	1.27605E-7	 	19423.5645	43.47762	 
915.0	1.0	0.0	8.08575	7.32475	-6.60109	16.89944	24.30077	1.19789	0.8348	154.61961	162.18894	57.64606	0.34111	 	5.152376312E7	 	1.12551E-7	 	19207.98065	43.11677	 
910.0	1.0	0.0	8.08922	7.32162	-6.64108	16.82638	24.19935	1.19785	0.83483	155.09438	162.43513	57.83369	0.34087	 	5.822552745E7	 	9.91775E-8	 	18994.14157	42.76782	 
905.0	1.0	0.0	8.09265	7.31851	-6.68066	16.75419	24.09926	1.19774	0.8349	155.56475	162.67865	58.01963	0.34062	 	6.586255773E7	 	8.73069E-8	 	18781.98988	42.43034	 
900.0	1.0	0.0	8.09605	7.31544	-6.71986	16.68282	24.00042	1.19757	0.83502	156.03088	162.91956	58.20395	0.34038	 	7.457428333E7	 	7.67805E-8	 	18571.47102	42.10377	 
895.0	1.0	0.0	8.09942	7.31239	-6.75869	16.61224	23.90279	1.19734	0.83519	156.49292	163.15794	58.38671	0.34014	 	8.45222531E7	 	6.7455E-8	 	18362.53231	41.78774	 
