T (C)	Fraction solid (wt)-TOTAL	Fraction liquid (wt)-LIQUID	Density (g/(cm)^3)-TOTAL	Molar volume (cm^3)-TOTAL	Volume change (%)-  	Average expansion coeff. (10e-6 1/K)-  	Thermal conductivity (W/(m*K))-TOTAL	Electrical resistivity (10e-6 Ohm*m)-TOTAL	Electrical conductivity (10e6 1/(Ohm*m))-TOTAL	Young's modulus (GPa)-TOTAL	Bulk modulus (GPa)-TOTAL	Shear modulus(GPa)-TOTAL	Poisson's ratio-TOTAL	Liquid viscosity (mPa s)-  	Total viscosity (mPa s)-  	Liquid diffusivity (10e-9 (m^2)/s)-  	Total diffusivity (10e-9 (m^2)/s)-  	Surface Tension (mN/m)-  	Enthalpy (J/mole)-TOTAL	Specific heat (J/(mole K))-TOTAL	Latent heat (J/mole)-TOTAL
700.0	0.00137	0.99863	1.65989	15.32977	0.0	70.10521	81.55007	0.29236	3.42041	7.37519E-13	23.59667	2.4585E-13	0.49994	1.28035	1.28035	3.70969	3.70969	543.73085	27467.754	 	0.0
695.0	0.00151	0.99849	1.66121	15.31745	-0.0803763	70.28076	81.19949	0.29212	3.4233	1.08799E-12	23.67017	3.62679E-13	0.49993	1.2951	1.2951	3.64859	3.64859	545.46853	27293.305	34.8898	1.236
690.0	0.00165	0.99835	1.66253	15.30533	-0.15944	70.47478	80.84975	0.29186	3.42625	1.54651E-12	23.74392	5.15531E-13	0.49992	1.31018	1.31018	3.58798	3.58798	547.20626	27118.822	34.8966	2.458
685.0	0.00178	0.99822	1.66384	15.29327	-0.23808	70.6788	80.50016	0.29161	3.42923	2.13127E-12	23.81769	7.10463E-13	0.49992	1.3256	1.3256	3.52783	3.52783	548.94404	26944.307	34.903	3.666
680.0	0.00192	0.99808	1.66516	15.28112	-0.31735	70.88216	80.14984	0.29136	3.43222	2.86126E-12	23.89122	9.53811E-13	0.49991	1.34137	1.34137	3.46817	3.46817	550.68189	26769.759	34.9096	4.861
675.0	0.00205	0.99795	1.66647	15.26918	-0.39526	71.10624	79.80042	0.2911	3.43528	3.75634E-12	23.96501	1.25219E-12	0.49991	1.35749	1.35749	3.40899	3.40899	552.41978	26595.177	34.9164	6.042
670.0	0.00218	0.99782	1.66777	15.25714	-0.4738	71.33016	79.45028	0.29084	3.43834	4.83634E-12	24.03857	1.61222E-12	0.4999	1.37399	1.37399	3.35029	3.35029	554.15774	26420.563	34.9228	7.209
665.0	0.00231	0.99769	1.66908	15.24531	-0.55097	71.57614	79.10103	0.29057	3.44147	6.12171E-12	24.11238	2.04072E-12	0.49989	1.39088	1.39088	3.29208	3.29208	555.89574	26245.916	34.9294	8.363
660.0	0.00243	0.99757	1.67038	15.23338	-0.62878	71.82266	78.75106	0.29031	3.4446	7.63379E-12	24.18595	2.54479E-12	0.49988	1.40815	1.40815	3.23436	3.23436	557.63381	26071.237	34.9358	9.502
655.0	0.00256	0.99744	1.67167	15.22166	-0.70522	72.09254	78.40198	0.29004	3.44781	9.39174E-12	24.25978	3.13083E-12	0.49988	1.42584	1.42584	3.17713	3.17713	559.37192	25896.524	34.9426	10.628
650.0	0.00268	0.99732	1.67296	15.20984	-0.78237	72.36298	78.05212	0.28977	3.45101	1.14188E-11	24.33336	3.80657E-12	0.49987	1.44394	1.44394	3.12039	3.12039	561.1101	25721.778	34.9492	11.741
645.0	0.0028	0.9972	1.67425	15.19808	-0.85908	72.64747	77.70241	0.2895	3.45426	1.37332E-11	24.40697	4.57813E-12	0.49987	1.46248	1.46248	3.06415	3.06415	562.84788	25547.326	34.8904	12.839
640.0	0.00293	0.99707	1.67554	15.18653	-0.93442	72.95772	77.35357	0.28922	3.45758	1.63563E-11	24.48083	5.4526E-12	0.49986	1.48147	1.48147	3.0084	3.0084	564.58619	25373.519	34.7614	13.924
635.0	0.00305	0.99695	1.67682	15.17488	-1.0104	73.27076	77.00403	0.28894	3.46091	1.93074E-11	24.55445	6.43641E-12	0.49986	1.50092	1.50092	2.95315	2.95315	566.32455	25200.35	34.6338	14.995
633.83	0.00307	0.99693	1.67712	15.17221	-1.0278	73.34949	76.92266	0.28888	3.4617	2.00451E-11	24.57171	6.68232E-12	0.49986	1.50553	1.50553	2.94033	2.94033	566.73037	25160.016	34.5559	15.243
633.83	0.00309	0.99691	1.67712	15.17221	-1.0278	73.34953	76.92254	0.28888	3.46169	2.00448E-11	24.57164	6.68226E-12	0.49985	1.50554	1.5073	2.94032	2.93688	566.73056	25159.813	 	15.431
630.0	0.13925	0.86075	1.68662	15.08668	-1.58577	67.41984	83.998	0.26343	3.79615	0.00911081	24.70654	0.00308446	0.47689	1.52614	2.75826	2.88837	1.59813	568.33312	23858.066	339.687	1185.796
625.0	0.28213	0.71787	1.69683	14.99586	-2.17819	61.14921	92.48503	0.23793	4.20297	0.16619	24.88574	0.0572135	0.45236	1.55605	19.93996	2.81716	0.21984	570.49154	22459.558	279.702	2413.423
620.0	0.38951	0.61049	1.70474	14.92594	-2.63428	56.40035	100.10651	0.21859	4.5748	0.62665	25.05998	0.21855	0.43364	1.58805	73.8477	2.74502	0.0590302	572.69109	21372.862	217.339	3329.833
615.0	0.47108	0.52892	1.71091	14.8713	-2.99075	52.77779	106.89788	0.20356	4.91266	1.37503	25.22943	0.48443	0.41922	1.62152	171.01668	2.67332	0.0253475	574.91456	20514.164	171.74	4018.828
610.0	0.53436	0.46564	1.71582	14.82755	-3.2761	49.96564	112.76812	0.19187	5.21178	2.32061	25.39481	0.82414	0.4079	1.65609	309.70538	2.60278	0.0139179	577.15209	19817.27	139.379	4546.593
605.0	0.58456	0.41544	1.71982	14.79155	-3.51093	47.73086	117.95099	0.1824	5.48235	3.37554	25.55669	1.20656	0.39882	1.69157	486.84953	2.53376	0.00880361	579.39807	19235.848	116.284	4959.451
600.0	0.62521	0.37479	1.72315	14.76123	-3.70872	45.921	122.43273	0.17473	5.72325	4.47574	25.71562	1.60837	0.39139	1.72787	700.607	2.46641	0.00608277	581.64928	18738.358	99.498	5288.934
595.0	0.65871	0.34129	1.72596	14.73516	-3.87882	44.42961	126.30337	0.1684	5.93819	5.58007	25.87202	2.01419	0.38519	1.76493	950.99032	2.40079	0.00445559	583.90375	18303.215	87.0286	5556.615
590.0	0.68676	0.31324	1.72838	14.71236	-4.02754	43.18509	129.64807	0.16311	6.13075	6.6631	26.02617	2.41429	0.37993	1.80274	1239.44194	2.3369	0.00339897	586.16028	17915.4	77.563	5777.506
585.0	0.71057	0.28943	1.73049	14.69203	-4.16015	42.12569	132.54684	0.15862	6.30435	7.71169	26.17816	2.80341	0.37541	1.8413	1569.09198	2.27471	0.00266933	588.41812	17564.239	70.2322	5962.273
580.0	0.73104	0.26896	1.73236	14.67368	-4.27982	41.21527	135.06433	0.15476	6.46174	8.71785	26.32814	3.17827	0.37148	1.8806	1944.03922	2.21419	0.00214194	590.67675	17241.987	64.4504	6118.65
575.0	0.74879	0.25121	1.73403	14.65696	-4.38892	40.42759	137.26017	0.15139	6.6055	9.67948	26.4763	3.53778	0.36801	1.92067	2369.93548	2.15529	0.00174672	592.9358	16942.915	59.8144	6252.36
570.0	0.76436	0.23564	1.73555	14.64155	-4.48942	39.7396	139.17983	0.14842	6.7376	10.59558	26.62267	3.88134	0.36494	1.96153	2853.31564	2.09795	0.00144225	595.19501	16662.7	56.043	6367.716
565.0	0.77809	0.22191	1.73693	14.62723	-4.58286	39.1336	140.86396	0.14578	6.85981	11.46776	26.76732	4.20934	0.36218	2.00321	3402.22581	2.04213	0.00120239	597.4542	16398.031	52.9338	6468.022
560.0	0.7903	0.2097	1.7382	14.61381	-4.67037	38.59676	142.34544	0.1434	6.97356	12.29782	26.91031	4.5223	0.35969	2.04572	4026.13246	1.98776	0.00101	599.71323	16146.328	50.3406	6555.849
555.0	0.80122	0.19878	1.73938	14.60114	-4.75308	38.11495	143.65201	0.14124	7.08005	13.0885	27.05162	4.82111	0.35742	2.08911	4736.01105	1.93479	8.5346E-4	601.97203	15905.558	48.154	6633.223
550.0	0.81105	0.18895	1.74048	14.58914	-4.83135	37.68586	144.80484	0.13927	7.18022	13.84121	27.19135	5.10617	0.35534	2.1334	5544.31679	1.88319	7.24632E-4	604.23045	15674.095	46.2926	6701.763
545.0	0.81995	0.18005	1.7415	14.57768	-4.90608	37.29797	145.82638	0.13746	7.27507	14.55991	27.3295	5.3789	0.35343	2.1786	6466.59007	1.83291	6.1751E-4	606.48845	15450.625	44.694	6762.774
540.0	0.82803	0.17197	1.74248	14.5667	-4.97769	36.94649	146.73093	0.13577	7.36521	15.24623	27.46606	5.63982	0.35166	2.2248	7519.69923	1.78389	5.27785E-4	608.74598	15234.075	43.31	6817.323
535.0	0.83541	0.16459	1.74341	14.55617	-5.0464	36.63042	147.5329	0.13421	7.45128	15.90237	27.60113	5.88971	0.35001	2.272	8723.99174	1.73608	4.5213E-4	611.00291	15023.561	42.1028	6866.286
530.0	0.84216	0.15784	1.74428	14.54597	-5.11291	36.3393	148.24596	0.13273	7.5339	16.53176	27.73464	6.12981	0.34847	2.32023	10103.65768	1.68947	3.87976E-4	613.25932	14818.347	41.0428	6910.39
525.0	0.84838	0.15162	1.74512	14.53614	-5.17706	36.07808	148.87706	0.13135	7.61337	17.13444	27.86669	6.36007	0.34703	2.36957	11685.14892	1.644	3.33378E-4	615.51502	14617.819	40.1056	6950.247
520.0	0.85411	0.14589	1.74593	14.5266	-5.23931	35.8402	149.43762	0.13004	7.69022	17.71379	27.99726	6.58175	0.34567	2.42005	13501.57793	1.59963	2.8672E-4	617.77002	14421.455	39.2728	6986.368
515.0	0.8594	0.1406	1.74671	14.51728	-5.30007	35.61917	149.9331	0.12879	7.76466	18.2706	28.12629	6.79512	0.34439	2.47168	15589.85724	1.55634	2.46748E-4	620.02437	14228.813	38.5284	7019.189
510.0	0.86432	0.13568	1.74747	14.50823	-5.35912	35.42127	150.37112	0.1276	7.83706	18.80662	28.25391	7.00079	0.34318	2.52455	17994.42321	1.51407	2.12419E-4	622.27787	14039.516	37.8594	7049.082
505.0	0.8689	0.1311	1.7482	14.49937	-5.4169	35.23907	150.75915	0.12646	7.90777	19.32425	28.38009	7.19967	0.34202	2.57871	20768.2555	1.47281	1.82873E-4	624.53061	13853.238	37.2556	7076.365
500.0	0.87316	0.12684	1.74891	14.4907	-5.47351	35.07161	151.09998	0.12536	7.97691	19.82385	28.50479	7.39187	0.34092	2.63417	23971.30628	1.43254	1.5742E-4	626.78254	13669.698	36.708	7101.313
495.0	0.87715	0.12285	1.7496	14.48221	-5.52883	34.9232	151.3983	0.12431	8.04468	20.30646	28.62811	7.57776	0.33987	2.69102	27675.53704	1.39321	1.35468E-4	629.03349	13488.651	36.2094	7124.166
490.0	0.88088	0.11912	1.75028	14.47388	-5.58322	34.78709	151.65876	0.12328	8.11132	20.77366	28.75001	7.75793	0.33887	2.74932	31966.49828	1.35479	1.1652E-4	631.28358	13309.884	35.7534	7145.13
485.0	0.88437	0.11563	1.75094	14.46568	-5.63667	34.66478	151.88442	0.12229	8.17696	21.22622	28.87049	7.93267	0.3379	2.80912	36944.44603	1.31726	1.0016E-4	633.5327	13133.209	35.335	7164.387
480.0	0.88766	0.11234	1.75159	14.45764	-5.68915	34.55883	152.08015	0.12133	8.24186	21.66592	28.98964	8.10262	0.33697	2.87048	42730.58878	1.2806	8.60259E-5	635.78076	12958.461	34.9496	7182.096
475.0	0.89076	0.10924	1.75222	14.44969	-5.74099	34.46166	152.24558	0.1204	8.30596	22.09227	29.10735	8.26761	0.33607	2.93345	49463.23968	1.24479	7.38232E-5	638.02789	12785.494	34.5934	7198.398
470.0	0.89368	0.10632	1.75285	14.44186	-5.79206	34.37864	152.38414	0.11948	8.36946	22.50619	29.2237	8.42796	0.33521	2.99814	57311.22187	1.20979	6.32883E-5	640.27389	12614.178	34.2632	7213.417
465.0	0.89643	0.10357	1.75347	14.43414	-5.84244	34.30846	152.4984	0.11859	8.43247	22.9088	29.33869	8.5841	0.33437	3.06461	66475.76488	1.17559	5.41961E-5	642.51877	12444.398	33.956	7227.264
460.0	0.89904	0.10096	1.75408	14.42651	-5.89219	34.25142	152.59069	0.11771	8.49511	23.3009	29.45233	8.73631	0.33357	3.13292	77197.02139	1.14217	4.63531E-5	644.7625	12276.049	33.6698	7240.035
455.0	0.90151	0.0984913	1.75468	14.41898	-5.94135	34.20776	152.66245	0.11686	8.55747	23.68287	29.56464	8.88476	0.33278	3.20317	89761.08918	1.1095	3.95931E-5	647.00502	12109.04	33.4018	7251.819
450.0	0.90385	0.0961547	1.75528	14.41152	-5.98996	34.1781	152.71557	0.11601	8.61963	24.05523	29.67563	9.02962	0.33202	3.27544	104511.7514	1.07757	3.37715E-5	649.24631	11943.288	33.1504	7262.694
445.0	0.90607	0.0939276	1.75587	14.40415	-6.03806	34.16299	152.75077	0.11519	8.68165	24.41852	29.78528	9.17109	0.33128	3.34981	121861.5838	1.04636	2.87631E-5	651.4863	11778.715	32.9146	7272.73
440.0	0.90818	0.0918216	1.75645	14.39686	-6.08564	34.16538	152.77007	0.11437	8.74362	24.77314	29.89365	9.30932	0.33056	3.42641	142308.4694	1.01585	2.44589E-5	653.72492	11615.256	32.6918	7281.99
435.0	0.91019	0.0898144	1.75703	14.38963	-6.1328	34.18323	152.77416	0.11356	8.80559	25.11969	30.00069	9.44455	0.32985	3.50529	166452.6611	0.98602	2.07645E-5	655.96222	11452.848	32.4816	7290.532
430.0	0.91209	0.0879064	1.75761	14.38246	-6.17954	34.22015	152.76443	0.11277	8.86764	25.4585	30.10645	9.57688	0.32916	3.58659	195020.8343	0.95687	1.75976E-5	658.1981	11291.434	32.2828	7298.406
425.0	0.91391	0.0860866	1.75818	14.37536	-6.22588	34.27852	152.7421	0.11198	8.92985	25.7899	30.21093	9.70645	0.32849	3.67041	228893.8641	0.92837	1.48868E-5	660.43251	11130.964	32.094	7305.659
420.0	0.91566	0.0843438	1.75874	14.36831	-6.27184	34.36095	152.70727	0.11121	8.99221	26.11419	30.31412	9.83336	0.32784	3.75688	269140.5867	0.90051	1.257E-5	662.66542	10971.392	31.9144	7312.333
415.0	0.91731	0.0826895	1.75931	14.36131	-6.31749	34.46883	152.66152	0.11044	9.05483	26.43174	30.41605	9.95776	0.32719	3.84612	317066.0163	0.87327	1.0593E-5	664.89684	10812.678	31.7428	7318.469
410.0	0.9189	0.0811014	1.75987	14.35438	-6.36274	34.61301	152.60526	0.10968	9.11774	26.74299	30.51672	10.0798	0.32656	3.93825	374265.4358	0.84664	8.90888E-6	667.12659	10654.791	31.5774	7324.104
405.0	0.92041	0.0795908	1.76043	14.3475	-6.40764	34.799	152.53921	0.10892	9.18099	27.04778	30.61617	10.19942	0.32595	4.03345	442684.0322	0.82061	7.47685E-6	669.35462	10497.695	31.4192	7329.271
400.0	0.92186	0.0781355	1.76099	14.34066	-6.45225	35.0326	152.46429	0.10817	9.24464	27.34686	30.71437	10.31691	0.32534	4.13182	524722.0635	0.79517	6.26137E-6	671.58101	10341.355	31.268	7333.998
395.0	0.92325	0.0767466	1.76155	14.33386	-6.49657	35.328	152.38099	0.10743	9.30874	27.64021	30.81134	10.43227	0.32475	4.23354	623324.1345	0.7703	5.23175E-6	673.80565	10185.74	31.123	7338.314
390.0	0.92459	0.0754131	1.7621	14.3271	-6.54066	35.69879	152.28949	0.10669	9.37329	27.92815	30.90708	10.5456	0.32416	4.33878	742126.9289	0.74599	4.36134E-6	676.02858	10030.821	30.9838	7342.242
385.0	0.92585	0.0741463	1.76266	14.3204	-6.58439	36.1808	152.19065	0.10595	9.43837	28.21079	31.00163	10.65696	0.32359	4.44773	885635.9541	0.72223	3.62707E-6	678.24951	9876.571	30.85	7345.805
380.0	0.92708	0.0729205	1.76321	14.31373	-6.6279	36.80305	152.08437	0.10522	9.50398	28.48844	31.09495	10.76645	0.32302	4.56054	1059436.628	0.69901	3.00902E-6	680.4686	9722.965	30.7212	7349.024
375.0	0.92825	0.0717469	1.76376	14.3071	-6.67115	37.62997	151.97255	0.10449	9.57026	28.76128	31.18711	10.87414	0.32246	4.67744	1270492.382	0.67632	2.48995E-6	682.68573	9569.981	30.5968	7351.919
370.0	0.92938	0.07062	1.76432	14.3005	-6.71422	38.75406	151.85367	0.10377	9.63711	29.02941	31.27804	10.98008	0.32191	4.79865	1527474.414	0.65415	2.05506E-6	684.90095	9417.596	30.477	7354.506
365.0	0.93046	0.0695376	1.76487	14.29394	-6.75697	40.37358	151.72967	0.10304	9.70469	29.29292	31.36784	11.08428	0.32137	4.92438	1841267.458	0.6325	1.69158E-6	687.11395	9265.79	30.3612	7356.803
360.0	0.9315	0.0684963	1.76542	14.28742	-6.79952	42.83706	151.59985	0.10232	9.77296	29.55218	31.45645	11.18691	0.32084	5.05487	2225532.797	0.61134	1.38854E-6	689.3249	9114.545	30.249	7358.825
355.0	0.9325	0.0674951	1.76598	14.28093	-6.84188	46.99057	151.46507	0.10161	9.84199	29.80715	31.5439	11.28793	0.32031	5.1904	2697474.555	0.59068	1.13656E-6	691.53371	8963.843	30.1404	7360.585
350.0	0.93347	0.066533	1.76653	14.27447	-6.88401	55.38024	151.32596	0.10089	9.91185	30.05806	31.63021	11.38743	0.31979	5.33121	3278867.851	0.5705	9.27589E-7	693.74026	8813.666	30.0354	7362.097
345.0	0.93439	0.0656065	1.76708	14.26804	-6.92595	80.68337	151.18219	0.10017	9.98253	30.30504	31.71537	11.48547	0.31928	5.47762	3997308.249	0.55079	7.54767E-7	695.94456	8664.0	29.9332	7363.373
341.01	0.9352	0.0648034	1.76752	14.26291	-6.95938	280.98007	151.06258	0.099607	10.03945	30.50692	31.78284	11.56564	0.31886	5.59869	4693500.986	0.5354	6.38661E-7	697.70227	8544.565	 	7364.56
340.0	1.0	0.0	1.76575	14.25079	-7.03846	 	151.76516	0.098983	10.10274	36.42877	32.02136	13.89994	0.31039	 	5856024.049	 	5.11035E-7	 	8275.288	 	7527.626
