T (C)	Fraction solid (wt)-TOTAL	Fraction liquid (wt)-LIQUID	Density (g/(cm)^3)-TOTAL	Molar volume (cm^3)-TOTAL	Volume change (%)-  	Average expansion coeff. (10e-6 1/K)-  	Thermal conductivity (W/(m*K))-TOTAL	Electrical resistivity (10e-6 Ohm*m)-TOTAL	Electrical conductivity (10e6 1/(Ohm*m))-TOTAL	Young's modulus (GPa)-TOTAL	Bulk modulus (GPa)-TOTAL	Shear modulus(GPa)-TOTAL	Poisson's ratio-TOTAL	Liquid viscosity (mPa s)-  	Total viscosity (mPa s)-  	Liquid diffusivity (10e-9 (m^2)/s)-  	Total diffusivity (10e-9 (m^2)/s)-  	Surface Tension (mN/m)-  	Enthalpy (J/mole)-TOTAL	Specific heat (J/(mole K))-TOTAL	Latent heat (J/mole)-TOTAL
700.0	0.00336	0.99664	1.66436	15.32526	0.0	66.7624	81.47675	0.29263	3.41734	2.66413E-11	23.6137	8.88137E-12	0.49984	1.28184	1.28184	3.70538	3.70538	543.79337	27448.031	 	0.0
695.0	0.0035	0.9965	1.66569	15.3131	-0.0793427	66.90443	81.12737	0.29238	3.42026	3.1498E-11	23.68765	1.05005E-11	0.49984	1.29661	1.29661	3.64436	3.64436	545.53078	27273.559	34.8944	1.233
690.0	0.00363	0.99637	1.66701	15.30099	-0.15833	67.05416	80.77807	0.29212	3.42321	3.69505E-11	23.76161	1.23182E-11	0.49983	1.3117	1.3117	3.58381	3.58381	547.26825	27099.053	34.9012	2.456
685.0	0.00377	0.99623	1.66833	15.28878	-0.23802	67.20097	80.428	0.29187	3.42616	4.30162E-11	23.83532	1.43404E-11	0.49982	1.32714	1.32714	3.52375	3.52375	549.00578	26924.514	34.9078	3.663
680.0	0.0039	0.9961	1.66964	15.27679	-0.31627	67.36725	80.07889	0.29161	3.42918	4.97473E-11	23.9093	1.65844E-11	0.49982	1.34292	1.34292	3.46416	3.46416	550.74336	26749.941	34.9146	4.856
675.0	0.00403	0.99597	1.67096	15.26485	-0.39416	67.54237	79.72985	0.29135	3.43224	5.71805E-11	23.98329	1.90625E-11	0.49981	1.35907	1.35907	3.40505	3.40505	552.48099	26575.334	34.9214	6.036
670.0	0.00416	0.99584	1.67227	15.25282	-0.47268	67.71597	79.3801	0.2911	3.4353	6.5352E-11	24.05705	2.17868E-11	0.4998	1.37558	1.37558	3.34642	3.34642	554.21869	26400.694	34.928	7.201
665.0	0.00429	0.99571	1.67357	15.24099	-0.54985	67.90989	79.03125	0.29083	3.43843	7.42726E-11	24.13106	2.47608E-11	0.4998	1.39248	1.39248	3.28828	3.28828	555.95643	26226.021	34.9346	8.353
660.0	0.00442	0.99558	1.67487	15.22907	-0.62763	68.10295	78.68168	0.29057	3.44157	8.40001E-11	24.20483	2.80039E-11	0.49979	1.40978	1.40978	3.23063	3.23063	557.69424	26051.314	34.9414	9.49
655.0	0.00455	0.99545	1.67617	15.21736	-0.70406	68.31755	78.33298	0.2903	3.44477	9.45579E-11	24.27887	3.15237E-11	0.49979	1.42748	1.42748	3.17347	3.17347	559.43209	25876.573	34.9482	10.614
650.0	0.00467	0.99533	1.67747	15.20555	-0.78111	68.53185	77.98359	0.29002	3.44798	1.0596E-10	24.35266	3.53253E-11	0.49978	1.44561	1.44561	3.1168	3.1168	561.17001	25701.799	34.9548	11.723
645.0	0.00479	0.99521	1.67876	15.1938	-0.8578	68.75746	77.63428	0.28975	3.45123	1.18254E-10	24.42647	3.9424E-11	0.49977	1.46417	1.46417	3.06062	3.06062	562.90753	25527.317	34.8964	12.819
640.0	0.00491	0.99509	1.68005	15.18224	-0.9332	69.00608	77.28578	0.28947	3.45455	1.31468E-10	24.50051	4.38292E-11	0.49977	1.48317	1.48317	3.00494	3.00494	564.64557	25353.479	34.7676	13.902
635.0	0.00503	0.99497	1.68133	15.1706	-1.00915	69.25636	76.93664	0.28919	3.45788	1.45603E-10	24.57434	4.8542E-11	0.49976	1.50265	1.50265	2.94976	2.94976	566.38368	25180.278	34.6402	14.97
633.25	0.00508	0.99492	1.68178	15.16653	-1.03572	69.34611	76.81444	0.2891	3.45905	1.50779E-10	24.60015	5.02678E-11	0.49976	1.50957	1.50957	2.93057	2.93057	566.99184	25119.828	34.5539	15.339
633.25	0.00508	0.99492	1.68178	15.16654	-1.03567	69.34673	76.81446	0.2891	3.45905	1.50781E-10	24.60015	5.02684E-11	0.49976	1.50958	1.51245	2.93057	2.925	566.9919	25119.771	 	15.391
630.0	0.11858	0.88142	1.68974	15.09511	-1.50175	64.36744	82.68975	0.26759	3.73702	0.00443901	24.71166	0.00149906	0.48059	1.52695	2.24355	2.88683	1.96477	568.34768	24031.259	334.887	992.47
625.0	0.26366	0.73634	1.70012	15.00281	-2.10405	57.92724	91.08687	0.24158	4.13943	0.1236	24.89084	0.0424547	0.4557	1.55674	15.45048	2.81592	0.28372	570.50157	22613.861	283.48	2238.95
620.0	0.37406	0.62594	1.70816	14.93129	-2.5707	52.99247	98.66721	0.22178	4.50902	0.52414	25.06608	0.18244	0.43649	1.58867	62.38277	2.74395	0.069879	572.6978	21507.732	221.226	3174.753
615.0	0.45917	0.54083	1.71439	14.87515	-2.93703	49.18495	105.51661	0.20622	4.84918	1.22191	25.23736	0.42979	0.42154	1.62211	152.61337	2.67234	0.0284041	574.91886	20631.891	175.168	3880.852
610.0	0.52621	0.47379	1.71926	14.83004	-3.23136	46.19167	111.48381	0.19408	5.15242	2.14547	25.40519	0.76098	0.40967	1.65668	286.93835	2.60185	0.0150222	577.15459	19920.615	142.255	4422.958
605.0	0.58018	0.41982	1.72312	14.79285	-3.47406	43.78351	116.90075	0.18404	5.43354	3.21273	25.56989	1.14736	0.40005	1.6922	463.85213	2.53282	0.00924008	579.39921	19327.278	118.667	4847.689
600.0	0.62448	0.37552	1.7262	14.76165	-3.67766	41.82128	121.67069	0.17582	5.68763	4.35802	25.73214	1.56527	0.3921	1.72854	682.47894	2.46544	0.00624434	581.64929	18819.893	101.477	5187.022
595.0	0.66148	0.33852	1.72869	14.73487	-3.85242	40.18742	125.85733	0.169	5.91722	5.53479	25.89197	1.99753	0.38541	1.76567	943.28028	2.39978	0.00449201	583.90285	18376.467	88.6852	5462.941
590.0	0.69282	0.30718	1.73072	14.71152	-4.00477	38.80923	129.53138	0.16326	6.12523	6.71253	26.04961	2.43261	0.3797	1.80356	1248.30264	2.33583	0.00337484	586.15861	17981.649	78.9636	5690.79
585.0	0.71971	0.28029	1.73238	14.69089	-4.13936	37.6344	132.75959	0.15837	6.31447	7.87196	26.20525	2.86303	0.37476	1.84221	1601.0226	2.27358	0.00261609	588.41575	17624.506	71.4286	5881.491
580.0	0.74303	0.25697	1.73374	14.67244	-4.25973	36.62304	135.60114	0.15414	6.48742	9.00117	26.35896	3.28405	0.37044	1.88162	2006.2302	2.213	0.00207554	590.67372	17297.096	65.482	6042.977
575.0	0.76346	0.23654	1.73486	14.65573	-4.36879	35.74092	138.10979	0.15046	6.64639	10.09427	26.51076	3.69317	0.36661	1.92181	2470.22901	2.15402	0.0016758	592.93218	16993.534	60.7124	6181.127
570.0	0.78148	0.21852	1.73578	14.64043	-4.46864	34.9641	140.32759	0.14721	6.79316	11.147	26.66067	4.08854	0.3632	1.9628	3000.33136	2.0966	0.00137158	595.19088	16709.381	56.8306	6300.37
565.0	0.79751	0.20249	1.73654	14.62636	-4.56043	34.2808	142.29562	0.14431	6.92953	12.15892	26.80882	4.46975	0.36013	2.00462	3605.79365	2.04069	0.00113451	597.44955	16441.23	53.6302	6404.105
560.0	0.81187	0.18813	1.73716	14.61326	-4.64592	33.66927	144.04522	0.14171	7.05683	13.13016	26.95514	4.83667	0.35735	2.04728	4297.2127	1.98625	9.46287E-4	599.70814	16186.429	50.9602	6494.977
555.0	0.82478	0.17522	1.73767	14.60102	-4.72575	33.12349	145.60454	0.13935	7.17629	14.06164	27.09972	5.18949	0.35482	2.09084	5087.13856	1.93319	7.94552E-4	601.96646	15942.884	48.709	6575.071
550.0	0.83647	0.16353	1.73808	14.58954	-4.80068	32.63539	146.9973	0.13719	7.28894	14.95495	27.24262	5.52864	0.3525	2.13531	5990.25271	1.8815	6.70688E-4	604.22441	15708.922	46.7924	6646.053
545.0	0.8471	0.1529	1.73841	14.57866	-4.87168	32.1921	148.24324	0.13521	7.39564	15.81199	27.38375	5.85476	0.35035	2.18073	7023.63162	1.83112	5.68536E-4	606.48198	15483.191	45.1462	6709.269
540.0	0.8568	0.1432	1.73867	14.56831	-4.93923	31.7884	149.3575	0.13339	7.49705	16.63363	27.52313	6.16805	0.34837	2.22712	8206.70745	1.78202	4.83602E-4	608.7391	15264.585	43.7212	6765.815
535.0	0.8657	0.1343	1.73887	14.55844	-5.0036	31.42256	150.35886	0.13168	7.59401	17.4236	27.66087	6.46985	0.34652	2.27456	9563.63062	1.73413	4.12435E-4	610.99565	15052.193	42.4784	6816.595
530.0	0.87387	0.12613	1.73901	14.549	-5.06525	31.08859	151.25814	0.13009	7.68698	18.18298	27.79693	6.76049	0.3448	2.32305	11121.17916	1.68743	3.52478E-4	613.25161	14845.258	41.387	6862.361
525.0	0.88143	0.11857	1.73911	14.5399	-5.1246	30.7812	152.06528	0.12859	7.77642	18.91313	27.93129	7.04043	0.34318	2.37263	12910.72425	1.64188	3.01731E-4	615.50697	14643.146	40.4224	6903.739
520.0	0.88842	0.11158	1.73917	14.53114	-5.18174	30.50068	152.79287	0.12718	7.86288	19.61731	28.06405	7.31086	0.34165	2.42338	14970.55455	1.59743	2.58585E-4	617.76163	14445.32	39.5652	6941.258
515.0	0.89491	0.10509	1.73921	14.52267	-5.23702	30.24229	153.44478	0.12584	7.94652	20.29475	28.19515	7.57143	0.34022	2.47532	17342.35093	1.55405	2.21813E-4	620.01556	14251.326	38.7988	6975.368
510.0	0.90094	0.099061	1.73921	14.51446	-5.2906	30.0044	154.03256	0.12457	8.02789	20.94947	28.32464	7.82364	0.33886	2.5285	20079.20998	1.51171	1.90364E-4	622.26873	14060.772	38.1108	7006.452
505.0	0.90658	0.0934222	1.73918	14.50649	-5.34262	29.78611	154.56086	0.12335	8.10719	21.58183	28.45253	8.0676	0.33756	2.58299	23240.4478	1.47037	1.6342E-4	624.52107	13873.324	37.4896	7034.838
500.04	0.91179	0.0882094	1.73914	14.49876	-5.39302	29.58302	155.03102	0.12219	8.18402	22.18823	28.57779	8.30186	0.33634	2.63836	26865.4123	1.43034	1.40469E-4	626.75491	13690.136	 	7060.615
500.0	0.91184	0.0881565	1.73914	14.4987	-5.39343	29.58116	155.03433	0.12218	8.18461	22.19287	28.57879	8.30366	0.33633	2.63881	26896.20086	1.43002	1.40301E-4	626.77265	13688.679	36.929	7060.825
495.0	0.91692	0.0830827	1.73905	14.49109	-5.44309	29.38963	155.4718	0.12105	8.26113	22.79854	28.70435	8.53794	0.33513	2.69605	31149.41063	1.39061	1.2036E-4	629.02407	13504.952	36.7454	7086.288
490.0	0.92168	0.0783226	1.73894	14.48367	-5.49149	29.21539	155.86214	0.11996	8.33613	23.38353	28.82825	8.76453	0.33399	2.75474	36081.61928	1.35212	1.03231E-4	631.27443	13323.828	36.2248	7109.539
485.0	0.92613	0.0738663	1.73883	14.4764	-5.53893	29.05295	156.21029	0.11891	8.40985	23.94978	28.95047	8.98415	0.33289	2.81495	41810.63213	1.31453	8.85024E-5	633.52387	13145.072	35.7512	7130.805
480.0	0.93032	0.0696767	1.7387	14.46928	-5.58543	28.90278	156.51942	0.11789	8.48244	24.49816	29.07105	9.19711	0.33184	2.87673	48474.77704	1.27782	7.5832E-5	635.7723	12968.481	35.3182	7150.285
475.0	0.93427	0.0657292	1.73856	14.46229	-5.631	28.76641	156.79317	0.1169	8.55406	25.02959	29.19002	9.40373	0.33083	2.94015	56238.90543	1.24195	6.4929E-5	638.01958	12793.876	34.921	7168.152
470.0	0.93799	0.0620127	1.73842	14.45542	-5.67585	28.63927	157.03495	0.11594	8.62489	25.54552	29.30739	9.60458	0.32986	3.00529	65300.01234	1.20691	5.55456E-5	640.26583	12621.098	34.5556	7184.559
465.0	0.94148	0.0585156	1.73827	14.44866	-5.71996	28.52314	157.24648	0.11501	8.69501	26.04605	29.42318	9.79966	0.32893	3.07221	75890.19331	1.17268	4.74729E-5	642.51092	12450.008	34.218	7199.638
460.0	0.9448	0.0551989	1.73812	14.442	-5.76339	28.41755	157.431	0.1141	8.76458	26.5329	29.53742	9.98962	0.32802	3.14101	88291.21044	1.13923	4.05286E-5	644.7548	12280.484	33.9048	7213.508
455.0	0.94795	0.0520504	1.73797	14.43544	-5.80622	28.32188	157.59056	0.1132	8.83371	27.00648	29.65013	10.17462	0.32715	3.21176	102837.0322	1.10653	3.45587E-5	646.99745	12112.416	33.6136	7226.274
450.0	0.95092	0.0490849	1.73781	14.42896	-5.84851	28.23473	157.72692	0.11233	8.90249	27.46742	29.7613	10.35488	0.3263	3.28454	119928.6426	1.07458	2.94301E-5	649.23887	11945.705	33.3422	7238.028
445.0	0.95375	0.0462492	1.73766	14.42256	-5.89029	28.15687	157.8419	0.11147	8.971	27.91635	29.87098	10.53064	0.32548	3.35946	140048.6603	1.04335	2.50278E-5	651.47898	11780.263	33.0884	7248.853
440.0	0.95643	0.0435714	1.73751	14.41622	-5.93162	28.08748	157.93728	0.11063	9.03936	28.35408	29.97916	10.7022	0.32468	3.4366	163779.4108	1.01284	2.12524E-5	653.71779	11616.012	32.8502	7258.824
435.0	0.95899	0.0410114	1.73735	14.40996	-5.97247	28.02895	158.01468	0.1098	9.10765	28.78123	30.08589	10.8698	0.32391	3.51606	191824.3325	0.983	1.80181E-5	655.95514	11452.881	32.6262	7268.006
430.0	0.96142	0.0385837	1.7372	14.40376	-6.01295	27.97849	158.07481	0.10898	9.1759	29.19813	30.19113	11.03355	0.32315	3.59797	225031.4714	0.95384	1.52508E-5	658.19112	11290.805	32.4152	7276.459
425.0	0.96374	0.0362613	1.73706	14.39761	-6.05305	27.93815	158.11945	0.10818	9.24422	29.60539	30.29494	11.19368	0.32242	3.68244	264433.4122	0.92534	1.2886E-5	660.42563	11129.726	32.2158	7284.236
420.0	0.96594	0.0340588	1.73691	14.39152	-6.09279	27.90901	158.14954	0.10738	9.31268	30.00347	30.39732	11.35036	0.3217	3.76956	311284.2896	0.89748	1.08682E-5	662.65859	10969.593	32.0266	7291.385
415.0	0.96806	0.0319353	1.73677	14.38548	-6.13223	27.89038	158.16626	0.10659	9.38134	30.39277	30.49829	11.50375	0.32099	3.85949	367111.883	0.87024	9.14895E-6	664.89007	10810.36	31.8466	7297.953
410.0	0.97008	0.0299189	1.73664	14.37948	-6.17134	27.88631	158.17054	0.10582	9.45025	30.77377	30.59786	11.65402	0.32031	3.95235	433785.8663	0.84362	7.68648E-6	667.11985	10651.993	31.6734	7303.981
405.0	0.972	0.0279962	1.73651	14.37353	-6.21017	27.89684	158.16258	0.10505	9.51945	31.14667	30.69603	11.80125	0.31963	4.04828	513590.8266	0.8176	6.44459E-6	669.34798	10494.45	31.5086	7309.507
400.0	0.97386	0.0261399	1.73638	14.36762	-6.24876	27.92398	158.14411	0.10429	9.58904	31.51193	30.79283	11.94561	0.31898	4.14745	609338.063	0.79217	5.39188E-6	671.57448	10337.693	31.3514	7314.562
395.0	0.97564	0.0243642	1.73626	14.36175	-6.28708	27.97389	158.11558	0.10353	9.65905	31.86984	30.88828	12.0872	0.31833	4.25	724488.0421	0.76731	4.50121E-6	673.79915	10181.689	31.2008	7319.176
390.0	0.97733	0.0226695	1.73615	14.35591	-6.32519	28.04896	158.07694	0.10278	9.7295	32.22054	30.98235	12.22609	0.3177	4.3561	863306.2141	0.74302	3.74916E-6	676.02207	10026.406	31.0566	7323.379
385.0	0.97896	0.021042	1.73604	14.3501	-6.36307	28.15935	158.03022	0.10204	9.80052	32.5647	31.07511	12.36252	0.31707	4.46595	1031092.813	0.71928	3.1154E-6	678.24317	9871.813	30.9186	7327.193
380.0	0.98052	0.0194822	1.73594	14.34432	-6.40076	28.31548	157.97428	0.1013	9.87205	32.90212	31.16652	12.49642	0.31646	4.57971	1234399.468	0.69608	2.58252E-6	680.46234	9717.885	30.7856	7330.642
375.0	0.98202	0.0179763	1.73585	14.33858	-6.43825	28.53809	157.91097	0.10056	9.94422	33.2334	31.25663	12.62801	0.31586	4.6976	1481414.312	0.67342	2.13543E-6	682.67956	9564.597	30.6576	7333.748
370.0	0.98346	0.0165384	1.73576	14.33286	-6.47555	28.86056	157.84085	0.0998295	10.01708	33.55866	31.34544	12.75734	0.31527	4.81985	1782346.146	0.65128	1.76119E-6	684.89472	9411.924	30.5346	7336.53
365.0	0.98484	0.0151562	1.73568	14.32717	-6.5127	29.33964	157.7638	0.0991018	10.09064	33.87809	31.43296	12.88448	0.31469	4.94666	2149982.712	0.62965	1.44869E-6	687.10788	9259.845	30.4158	7339.006
360.0	0.98618	0.0138243	1.73562	14.3215	-6.5497	30.09305	157.67949	0.0983779	10.16489	34.19172	31.51918	13.00943	0.31411	5.0783	2600378.834	0.60852	1.18838E-6	689.31902	9108.341	30.3008	7341.191
356.64	0.98704	0.0129575	1.73557	14.3177	-6.57449	30.89048	157.62002	0.0978924	10.21529	34.3996	31.57645	13.09232	0.31373	5.16964	2959707.929	0.59459	1.03856E-6	690.80446	9006.784	 	7342.505
355.0	0.98851	0.0114859	1.73553	14.31547	-6.58901	30.79836	157.64922	0.0976197	10.24383	34.59072	31.60546	13.16821	0.31342	5.21212	3162465.466	0.58821	9.69447E-7	691.52859	8953.765	30.9152	7346.729
350.0	0.99288	0.00711972	1.73539	14.30875	-6.63292	30.48435	157.73592	0.0967895	10.3317	35.16439	31.693	13.39622	0.31247	5.34627	3877485.68	0.56889	7.84385E-7	693.73722	8792.902	32.1726	7358.83
345.0	0.99689	0.00311394	1.73525	14.30218	-6.67578	30.31005	157.81904	0.0959623	10.42076	35.70842	31.77891	13.61276	0.31158	5.48729	4763754.75	0.54982	6.33332E-7	695.94301	8633.986	31.7832	7369.259
340.81	1.0	0.0	1.73517	14.29673	-6.71135	 	157.8904	0.0952683	10.49667	36.14426	31.84969	13.78646	0.31086	 	5671016.308	 	5.28401E-7	 	8502.145	 	7376.787
