T (C)	Fraction solid (wt)-TOTAL	Fraction liquid (wt)-LIQUID	Density (g/(cm)^3)-TOTAL	Molar volume (cm^3)-TOTAL	Volume change (%)-  	Average expansion coeff. (10e-6 1/K)-  	Thermal conductivity (W/(m*K))-TOTAL	Electrical resistivity (10e-6 Ohm*m)-TOTAL	Electrical conductivity (10e6 1/(Ohm*m))-TOTAL	Young's modulus (GPa)-TOTAL	Bulk modulus (GPa)-TOTAL	Shear modulus(GPa)-TOTAL	Poisson's ratio-TOTAL	Liquid viscosity (mPa s)-  	Total viscosity (mPa s)-  	Liquid diffusivity (10e-9 (m^2)/s)-  	Total diffusivity (10e-9 (m^2)/s)-  	Surface Tension (mN/m)-  	Enthalpy (J/mole)-TOTAL	Specific heat (J/(mole K))-TOTAL	Latent heat (J/mole)-TOTAL
700.0	0.0	1.0	2.481	11.27269	0.0	66.44083	89.26909	0.26708	3.74417	0.0	51.58124	0.0	0.5	1.291	1.291	3.67908	3.67908	745.53127	29224.821	 	0.0
695.0	0.0	1.0	2.4827	11.26497	-0.0684996	66.55001	89.09948	0.26622	3.75635	0.0	51.6533	0.0	0.5	1.30505	1.30505	3.62079	3.62079	746.52631	29067.522	31.4598	0.0
690.0	0.0	1.0	2.4844	11.25727	-0.13678	66.66208	88.92986	0.26535	3.76867	0.0	51.72537	0.0	0.5	1.31939	1.31939	3.56293	3.56293	747.52063	28910.228	31.4588	0.0
685.0	0.0	1.0	2.48609	11.2496	-0.20484	66.7771	88.7602	0.26447	3.7811	0.0	51.79744	0.0	0.5	1.33405	1.33405	3.50549	3.50549	748.51419	28752.939	31.4578	0.0
680.0	0.0	1.0	2.48778	11.24195	-0.27268	66.89514	88.59052	0.2636	3.79367	0.0	51.8695	0.0	0.5	1.34902	1.34902	3.44849	3.44849	749.50694	28595.654	31.457	0.0
675.0	0.0	1.0	2.48947	11.23433	-0.34031	67.01628	88.42082	0.26272	3.80637	0.0	51.94157	0.0	0.5	1.36432	1.36432	3.39193	3.39193	750.49883	28438.373	31.4562	0.0
674.52	0.0	1.0	2.48963	11.2336	-0.34675	67.02801	88.40462	0.26263	3.80759	0.0	51.94845	0.0	0.5	1.3658	1.3658	3.38655	3.38655	750.59346	28423.361	31.4565	0.0
670.0	2.2E-4	0.99978	2.49118	11.22662	-0.40871	67.13472	88.25544	0.26182	3.8194	8.25537E-14	52.01358	2.75189E-14	0.49994	1.37973	1.37973	3.33638	3.33638	751.48652	28276.758	32.4144	4.342
665.0	4.5E-4	0.99955	2.49289	11.21901	-0.47618	67.26055	88.09094	0.26092	3.83259	1.47685E-12	52.08605	4.92319E-13	0.49989	1.39545	1.39545	3.28128	3.28128	752.47303	28114.916	32.3684	8.911
660.0	6.7E-4	0.99933	2.49459	11.21136	-0.54405	67.3859	87.92555	0.26002	3.8459	7.27292E-12	52.15837	2.42457E-12	0.49984	1.41155	1.41155	3.22657	3.22657	753.45873	27953.298	32.3236	13.252
655.0	8.8E-4	0.99912	2.49629	11.20364	-0.61252	67.5097	87.75918	0.25911	3.8593	2.1628E-11	52.23028	7.21037E-12	0.49978	1.42802	1.42802	3.17227	3.17227	754.44363	27792.099	32.2398	17.375
650.0	0.00107	0.99893	2.49798	11.19608	-0.67958	67.64403	87.59357	0.25821	3.87288	4.90333E-11	52.30279	1.63473E-11	0.49973	1.44488	1.44488	3.11837	3.11837	755.42751	27631.445	32.1308	21.284
645.0	0.00126	0.99874	2.49968	11.18847	-0.74708	67.77781	87.42708	0.2573	3.88657	9.38168E-11	52.3751	3.12788E-11	0.49969	1.46213	1.46213	3.06488	3.06488	756.24846	27471.33	32.023	24.992
641.51	0.00138	0.99862	2.50085	11.18329	-0.7931	67.87932	87.31155	0.25666	3.89625	1.37437E-10	52.42606	4.58226E-11	0.49966	1.47442	1.47442	3.02778	3.02778	756.94063	27359.852	 	27.463
641.51	0.00138	0.99862	2.50085	11.18329	-0.7931	67.87932	87.31155	0.25666	3.89625	1.37437E-10	52.42606	4.58226E-11	0.49966	1.47442	1.47442	3.02778	3.02778	756.94063	27359.851	 	27.464
640.0	0.03033	0.96967	2.5061	11.15981	-1.0014	66.76499	88.7945	0.25195	3.96897	2.50504E-5	52.52069	8.37122E-6	0.49622	1.48231	1.54776	3.0067	2.87955	756.92684	26993.613	95.5434	346.641
635.0	0.16332	0.83668	2.53007	11.05412	-1.93898	61.49955	96.15044	0.2314	4.32143	0.0255652	53.00082	0.00863578	0.48019	1.51721	5.13229	2.92144	0.86364	756.4069	25373.008	324.121	1811.515
630.0	0.29147	0.70853	2.55364	10.95203	-2.84456	56.34708	104.28437	0.21218	4.71295	0.27416	53.48005	0.093612	0.46435	1.56008	38.70814	2.82553	0.11388	755.7577	23806.804	313.241	3222.328
625.0	0.39476	0.60524	2.57315	10.86893	-3.58172	52.17027	112.03039	0.19642	5.09121	0.95917	53.91069	0.33046	0.45127	1.60778	138.07582	2.72652	0.0317481	755.24504	22515.282	258.304	4358.799
620.0	0.47423	0.52577	2.58861	10.80392	-4.15847	48.94292	119.00047	0.18388	5.43824	2.05831	54.29055	0.71421	0.44098	1.65851	314.69388	2.62841	0.0138523	754.92934	21486.547	205.747	5232.824
615.0	0.53576	0.46424	2.60095	10.7525	-4.61456	46.43419	125.10716	0.17393	5.7495	3.43463	54.63056	1.19854	0.43284	1.71158	564.96266	2.53266	0.00767279	754.79079	20655.596	166.19	5909.402
610.0	0.58433	0.41567	2.61099	10.71089	-4.98373	44.44449	130.46229	0.16585	6.02954	4.95829	54.9408	1.73819	0.42628	1.76675	883.64283	2.43976	0.00487803	754.79709	19967.412	137.637	6443.55
605.88	0.61712	0.38288	2.61798	10.68211	-5.239	43.0981	134.35457	0.16029	6.23856	6.25753	55.17981	2.20061	0.42177	1.81376	1195.71841	2.36542	0.00358806	754.88942	19479.736	 	6804.442
605.0	0.62445	0.37555	2.61953	10.67571	-5.29578	42.79298	135.22667	0.1591	6.28532	6.57747	55.22827	2.31483	0.42072	1.82321	1275.79492	2.35082	0.0033595	754.91721	19370.367	119.409	6886.897
601.25	0.65298	0.34702	2.62568	10.65051	-5.51932	41.6041	138.71418	0.15444	6.47504	7.95024	55.42981	2.80605	0.41662	1.86426	1645.61578	2.28924	0.00259341	755.07893	18934.756	 	7207.587
595.0	0.69341	0.30659	2.63477	10.61332	-5.84928	39.87143	143.68391	0.14803	6.75534	10.28647	55.72293	3.6467	0.41038	1.93431	2378.65739	2.19056	0.00178135	755.43291	18286.893	108.347	7663.979
590.0	0.71934	0.28066	2.64085	10.58852	-6.06927	38.75175	147.04128	0.14382	6.95324	12.07232	55.95021	4.29228	0.40628	1.9926	3059.32781	2.11424	0.00137704	755.80901	17840.677	89.2432	7957.502
585.0	0.74111	0.25889	2.64614	10.56698	-6.26034	37.80738	149.95892	0.1402	7.13252	13.77	56.17248	4.90811	0.40278	2.05299	3833.98945	2.04016	0.00109244	756.25299	17441.57	79.8214	8204.247
580.0	0.75961	0.24039	2.65082	10.54795	-6.42914	36.99778	152.51389	0.13705	7.29656	15.3749	56.39035	5.49207	0.39974	2.11557	4714.77926	1.96827	8.83183E-4	756.75353	17079.315	72.451	8414.47
579.85	0.76012	0.23988	2.65095	10.54743	-6.43378	36.9761	152.58461	0.13696	7.30121	15.42075	56.3968	5.50878	0.39965	2.11746	4742.60172	1.96617	8.77849E-4	756.76909	17069.062	 	8420.212
579.85	0.76012	0.23988	2.65095	10.54743	-6.43378	36.97609	152.5846	0.13696	7.30121	15.42075	56.39681	5.50878	0.39965	2.11746	4742.61432	1.96617	8.77847E-4	756.76911	17069.056	 	8420.214
575.0	0.77661	0.22339	2.65514	10.53036	-6.58519	36.26114	154.97041	0.13409	7.45779	16.9804	56.61233	6.07757	0.39697	2.18091	5747.88999	1.89811	7.20196E-4	757.29604	16731.007	69.6616	8611.074
570.0	0.79116	0.20884	2.65901	10.51462	-6.72487	35.62457	157.12759	0.13147	7.60644	18.47608	56.82977	6.62437	0.39455	2.24881	6919.50455	1.82994	5.94725E-4	757.88131	16411.016	63.9982	8779.689
565.7	0.80207	0.19793	2.66203	10.50231	-6.83407	35.14415	158.77701	0.12944	7.7257	19.67728	57.01356	7.06442	0.3927	2.30932	8052.7695	1.77291	5.08423E-4	758.4134	16154.548	 	8906.202
565.7	0.80207	0.19793	2.66203	10.50231	-6.83407	35.14415	158.77701	0.12944	7.7257	19.67728	57.01356	7.06442	0.3927	2.30932	8052.7695	1.77291	5.08423E-4	758.4134	16154.547	 	8906.202
565.0	0.80416	0.19584	2.66256	10.50016	-6.85315	35.05606	159.07305	0.12909	7.74656	19.90667	57.04227	7.14862	0.39234	2.31867	8264.27148	1.76429	4.94998E-4	758.48948	16109.41	60.3212	8930.244
560.0	0.8176	0.1824	2.66609	10.48585	-6.9801	34.4863	160.99798	0.12679	7.88735	21.44586	57.24688	7.71429	0.39001	2.38765	9878.37627	1.70309	4.11646E-4	759.0679	15804.447	60.9926	9084.479
555.0	0.82879	0.17121	2.66923	10.4731	-7.09314	34.00499	162.64947	0.12474	8.01637	22.82544	57.44946	8.22232	0.38802	2.46004	11693.4518	1.64306	3.45663E-4	759.69342	15525.693	55.7508	9212.825
550.0	0.83826	0.16174	2.67207	10.46153	-7.19583	33.58918	164.08474	0.12291	8.13623	24.07345	57.64983	8.68271	0.38629	2.53581	13746.42703	1.58434	2.92264E-4	760.35558	15266.726	51.7934	9321.702
545.0	0.84642	0.15358	2.67469	10.45089	-7.29014	33.22622	165.34997	0.12123	8.24907	25.21391	57.84814	9.1041	0.38476	2.61493	16081.36914	1.52707	2.48311E-4	761.04666	15023.096	48.726	9415.558
540.0	0.85355	0.14645	2.67712	10.44099	-7.37801	32.90355	166.47681	0.11967	8.35636	26.26533	58.04423	9.49317	0.38338	2.69745	18747.83433	1.47131	2.11693E-4	761.76116	14791.624	46.2944	9497.569
535.0	0.85983	0.14017	2.67941	10.43168	-7.46056	32.61403	167.48697	0.11822	8.45908	27.24051	58.23819	9.85453	0.38213	2.7834	21801.98307	1.41711	1.80918E-4	762.49484	14569.978	44.3292	9570.063
530.0	0.86543	0.13457	2.68158	10.42287	-7.53874	32.35146	168.40118	0.11685	8.5582	28.15262	58.42999	10.19296	0.38098	2.87283	25311.84542	1.3645	1.54867E-4	763.24445	14356.412	42.7132	9634.786
525.0	0.87047	0.12953	2.68364	10.41447	-7.61328	32.11119	169.23328	0.11555	8.65436	29.0108	58.61957	10.51178	0.37992	2.96576	29355.52164	1.31352	1.32703E-4	764.00748	14149.588	41.3648	9693.07
520.0	0.87504	0.12496	2.68562	10.40641	-7.68477	31.88931	169.99329	0.11431	8.74803	29.82178	58.80714	10.81342	0.37892	3.06243	34023.8004	1.26409	1.13778E-4	764.78194	13948.467	40.2242	9745.952
515.58	0.87874	0.12126	2.68731	10.39955	-7.74563	31.70752	170.61317	0.11326	8.82913	30.50448	58.97132	11.06763	0.37809	3.15101	38756.94181	1.2217	9.93266E-5	765.47473	13774.778	 	9788.847
515.0	0.8815	0.1185	2.68785	10.39743	-7.7644	31.60017	170.86375	0.11301	8.84861	30.89206	58.9798	11.21273	0.37754	3.15764	39753.1368	1.21824	9.67663E-5	765.42246	13728.561	43.9812	9817.918
510.0	0.90174	0.0982614	2.69199	10.3812	-7.90844	30.80278	172.70817	0.1111	9.00123	33.87743	59.066	12.33288	0.37346	3.215	48807.30518	1.18892	7.83153E-5	765.10214	13368.248	72.0626	10030.584
508.31	0.90728	0.0927239	2.69322	10.37642	-7.95077	30.57944	173.22113	0.11053	9.04752	34.74916	59.10089	12.66078	0.37231	3.23475	52074.02157	1.1791	7.32438E-5	765.03857	13259.84	 	10089.069
506.6	0.93475	0.0652546	2.69749	10.35944	-8.10147	29.50474	175.72653	0.10871	9.19853	39.20588	58.98085	14.34303	0.36672	3.25473	60268.97476	1.16929	6.3146E-5	764.98544	12884.909	 	10413.545
505.0	0.96549	0.0345077	2.70154	10.34276	-8.24938	28.43743	178.56765	0.10676	9.36641	44.74451	58.88919	16.44343	0.36056	3.28842	70256.26847	1.15495	5.40586E-5	764.31203	12466.61	180.328	10784.866
500.0	0.99374	0.00626403	2.70577	10.32425	-8.41361	27.42922	181.18504	0.10455	9.56517	50.52212	58.92812	18.64785	0.35464	3.39456	88652.00953	1.11165	4.25659E-5	764.25861	11979.728	97.3764	11124.68
495.0	1.0	0.0	2.70729	10.31653	-8.48213	27.16968	181.81857	0.10351	9.66109	52.0919	59.08092	19.24981	0.35305	 	103732.193	 	3.61426E-5	 	11755.185	44.9086	11202.439
490.0	1.0	0.0	2.70854	10.31173	-8.52468	27.11578	181.90287	0.10279	9.7289	52.37647	59.26267	19.35998	0.3527	 	119019.7238	 	3.12952E-5	 	11553.365	40.364	 
485.0	1.0	0.0	2.7098	10.30695	-8.56708	27.06192	181.98435	0.10207	9.79744	52.6599	59.44302	19.46975	0.35235	 	136808.1062	 	2.70477E-5	 	11403.074	30.0582	 
480.0	1.0	0.0	2.71105	10.30219	-8.60934	27.00809	182.06297	0.10135	9.86675	52.94274	59.62259	19.57933	0.35201	 	157546.1964	 	2.33324E-5	 	11253.175	29.9798	 
475.0	1.0	0.0	2.7123	10.29744	-8.65145	26.95429	182.13871	0.10064	9.93682	53.22371	59.79998	19.68825	0.35166	 	181770.4642	 	2.00887E-5	 	11103.66	29.903	 
470.0	1.0	0.0	2.71355	10.29271	-8.69341	26.90052	182.21154	0.0999233	10.00768	53.50347	59.97594	19.79675	0.35132	 	210123.4627	 	1.72619E-5	 	10954.522	29.8276	 
465.0	1.0	0.0	2.71479	10.28799	-8.73523	26.84678	182.28142	0.0992129	10.07933	53.78202	60.15049	19.90483	0.35098	 	243376.4804	 	1.48031E-5	 	10805.752	29.754	 
460.0	1.0	0.0	2.71603	10.2833	-8.7769	26.79308	182.34832	0.0985047	10.1518	54.05936	60.32364	20.01249	0.35064	 	282457.3865	 	1.26685E-5	 	10657.343	29.6818	 
455.0	1.0	0.0	2.71727	10.27862	-8.81843	26.73941	182.41222	0.0977987	10.22509	54.3355	60.49542	20.11973	0.3503	 	328484.943	 	1.08191E-5	 	10509.286	29.6114	 
450.0	1.0	0.0	2.7185	10.27395	-8.85981	26.68577	182.47307	0.0970947	10.29922	54.61044	60.66585	20.22655	0.34997	 	382811.1883	 	9.21999E-6	 	10361.574	29.5424	 
445.0	1.0	0.0	2.71973	10.2693	-8.90104	26.63216	182.53086	0.0963929	10.37421	54.88416	60.83492	20.33295	0.34964	 	447073.9221	 	7.84012E-6	 	10214.199	29.475	 
440.0	1.0	0.0	2.72096	10.26467	-8.94213	26.57859	182.58553	0.0956931	10.45007	55.15669	61.00267	20.43892	0.34931	 	523261.8625	 	6.65194E-6	 	10067.153	29.4092	 
435.0	1.0	0.0	2.72219	10.26006	-8.98308	26.52505	182.63707	0.0949954	10.52683	55.428	61.16911	20.54447	0.34898	 	613795.7449	 	5.63103E-6	 	9920.428	29.345	 
430.0	1.0	0.0	2.72341	10.25546	-9.02388	26.47154	182.68542	0.0942997	10.60449	55.69812	61.33424	20.6496	0.34865	 	721629.5306	 	4.75577E-6	 	9774.017	29.2822	 
425.0	1.0	0.0	2.72462	10.25087	-9.06453	26.41806	182.73057	0.093606	10.68308	55.96702	61.49809	20.75431	0.34832	 	850377.0495	 	4.00704E-6	 	9627.912	29.221	 
420.0	1.0	0.0	2.72584	10.24631	-9.10504	26.36462	182.77245	0.0929143	10.76261	56.23473	61.66068	20.85859	0.348	 	1004470.905	 	3.36803E-6	 	9482.105	29.1614	 
415.0	1.0	0.0	2.72705	10.24176	-9.14541	26.31121	182.81105	0.0922246	10.84309	56.50123	61.822	20.96244	0.34768	 	1189362.417	 	2.82394E-6	 	9336.592	29.1026	 
410.0	1.0	0.0	2.72826	10.23722	-9.18563	26.25783	182.84632	0.0915368	10.92456	56.76652	61.98209	21.06587	0.34736	 	1411773.925	 	2.36177E-6	 	9191.373	29.0438	 
405.0	1.0	0.0	2.72946	10.2327	-9.22571	26.20448	182.87822	0.090851	11.00703	57.03061	62.14094	21.16887	0.34704	 	1680018.078	 	1.97015E-6	 	9046.446	28.9854	 
400.0	1.0	0.0	2.73066	10.2282	-9.26564	26.15116	182.90671	0.0901671	11.09051	57.2935	62.29859	21.27144	0.34672	 	2004403.125	 	1.63913E-6	 	8901.81	28.9272	 
395.0	1.0	0.0	2.73186	10.22372	-9.30543	26.09788	182.93174	0.0894852	11.17504	57.55518	62.45503	21.37359	0.34641	 	2397748.903	 	1.36006E-6	 	8757.466	28.8688	 
390.0	1.0	0.0	2.73306	10.21925	-9.34507	26.04463	182.95327	0.0888051	11.26062	57.81566	62.61028	21.4753	0.3461	 	2876045.817	 	1.12539E-6	 	8613.412	28.8108	 
385.0	1.0	0.0	2.73425	10.2148	-9.38457	25.99141	182.97126	0.0881268	11.34728	58.07494	62.76436	21.57659	0.34579	 	3459299.099	 	9.28589E-7	 	8469.648	28.7528	 
380.0	1.0	0.0	2.73544	10.21036	-9.42393	25.93823	182.98566	0.0874504	11.43505	58.33301	62.91728	21.67745	0.34548	 	4172613.945	 	7.63997E-7	 	8326.173	28.695	 
375.0	1.0	0.0	2.73662	10.20594	-9.46314	25.88507	182.99642	0.0867759	11.52394	58.58988	63.06905	21.77787	0.34517	 	5047594.85	 	6.26726E-7	 	8182.986	28.6374	 
370.0	1.0	0.0	2.7378	10.20154	-9.50221	25.83195	183.0035	0.0861031	11.61398	58.84555	63.21968	21.87787	0.34486	 	6124156.241	 	5.12569E-7	 	8040.086	28.58	 
365.0	1.0	0.0	2.73898	10.19715	-9.54113	25.77886	183.00684	0.0854322	11.70519	59.10001	63.36919	21.97743	0.34456	 	7452873.353	 	4.17913E-7	 	7897.474	28.5224	 
360.0	1.0	0.0	2.74015	10.19278	-9.57992	25.72581	183.00639	0.084763	11.7976	59.35328	63.51759	22.07656	0.34426	 	9098045.344	 	3.39661E-7	 	7755.148	28.4652	 
355.0	1.0	0.0	2.74133	10.18842	-9.61856	25.67278	183.0021	0.0840956	11.89123	59.60534	63.66488	22.17525	0.34396	 	1.114170081E7	 	2.75168E-7	 	7613.107	28.4082	 
350.0	1.0	0.0	2.74249	10.18408	-9.65705	25.61979	182.99391	0.08343	11.9861	59.85619	63.81109	22.27351	0.34366	 	1.368885495E7	 	2.22184E-7	 	7471.352	28.351	 
345.0	1.0	0.0	2.74366	10.17976	-9.69541	25.56683	182.98178	0.082766	12.08225	60.10585	63.95622	22.37134	0.34337	 	1.687443556E7	 	1.78793E-7	 	7329.881	28.2942	 
340.0	1.0	0.0	2.74482	10.17545	-9.73362	25.5139	182.96563	0.0821038	12.1797	60.3543	64.10028	22.46873	0.34307	 	2.087244278E7	 	1.43377E-7	 	7188.695	28.2372	 
335.0	1.0	0.0	2.74598	10.17116	-9.77168	25.46101	182.94541	0.0814433	12.27848	60.60156	64.24329	22.56569	0.34278	 	2.590811074E7	 	1.14568E-7	 	7047.792	28.1806	 
330.0	1.0	0.0	2.74713	10.16688	-9.80961	25.40814	182.92106	0.0807844	12.37862	60.84761	64.38526	22.66221	0.34249	 	3.22741204E7	 	9.12132E-8	 	6907.172	28.124	 
325.0	1.0	0.0	2.74828	10.16262	-9.84739	25.35531	182.89252	0.0801273	12.48015	61.09246	64.52619	22.75829	0.3422	 	4.035230195E7	 	7.23483E-8	 	6766.835	28.0674	 
320.0	1.0	0.0	2.74943	10.15838	-9.88504	25.30252	182.85971	0.0794717	12.58309	61.33611	64.66611	22.85393	0.34192	 	5.064280887E7	 	5.71654E-8	 	6626.78	28.011	 
315.0	1.0	0.0	2.75058	10.15415	-9.92253	25.24975	182.82258	0.0788178	12.68749	61.57856	64.80501	22.94914	0.34163	 	6.380350554E7	 	4.49915E-8	 	6487.007	27.9546	 
310.0	1.0	0.0	2.75172	10.14994	-9.95989	25.19702	182.78105	0.0781655	12.79337	61.8198	64.94291	23.0439	0.34135	 	8.070337994E7	 	3.52675E-8	 	6347.515	27.8984	 
305.0	1.0	0.0	2.75286	10.14575	-9.99711	25.14432	182.73504	0.0775148	12.90076	62.05985	65.07982	23.13823	0.34107	 	1.024953047E8	 	2.75311E-8	 	6208.305	27.842	 
300.0	1.0	0.0	2.75399	10.14157	-10.03418	25.09165	182.68449	0.0768657	13.0097	62.2987	65.21575	23.23212	0.34079	 	1.307156167E8	 	2.14007E-8	 	6069.375	27.786	 
295.0	1.0	0.0	2.75512	10.1374	-10.07111	25.03901	182.62932	0.0762182	13.12023	62.53635	65.35071	23.32556	0.34051	 	1.674210491E8	 	1.6563E-8	 	5930.726	27.7298	 
290.0	1.0	0.0	2.75625	10.13326	-10.1079	24.98641	182.56945	0.0755722	13.23238	62.77279	65.48471	23.41857	0.34024	 	2.153779495E8	 	1.27617E-8	 	5792.357	27.6738	 
285.0	1.0	0.0	2.75737	10.12913	-10.14455	24.93384	182.50479	0.0749278	13.34619	63.00804	65.61776	23.51113	0.33996	 	2.783250562E8	 	9.78781E-9	 	5654.269	27.6176	 
280.0	1.0	0.0	2.75849	10.12501	-10.18106	24.8813	182.43526	0.0742848	13.4617	63.24208	65.74987	23.60325	0.33969	 	3.613403065E8	 	7.47159E-9	 	5516.46	27.5618	 
275.0	1.0	0.0	2.75961	10.12091	-10.21743	24.82879	182.36077	0.0736434	13.57894	63.47493	65.88105	23.69493	0.33942	 	4.713555593E8	 	5.67594E-9	 	5378.932	27.5056	 
270.0	1.0	0.0	2.76073	10.11683	-10.25365	24.77631	182.28123	0.0730035	13.69797	63.70658	66.0113	23.78616	0.33915	 	6.178827848E8	 	4.29043E-9	 	5241.683	27.4498	 
265.0	1.0	0.0	2.76184	10.11276	-10.28974	24.72387	182.19655	0.0723651	13.81881	63.93703	66.14065	23.87695	0.33889	 	8.140442833E8	 	3.22658E-9	 	5104.714	27.3938	 
260.0	1.0	0.0	2.76294	10.10871	-10.32568	24.67146	182.10663	0.0717282	13.94152	64.16628	66.26909	23.96729	0.33862	 	1.078042542E9	 	2.41379E-9	 	4968.025	27.3378	 
255.0	1.0	0.0	2.76405	10.10467	-10.36149	24.61908	182.01136	0.0710927	14.06615	64.39433	66.39664	24.05719	0.33836	 	1.435269607E9	 	1.79602E-9	 	4831.616	27.2818	 
250.0	1.0	0.0	2.76515	10.10065	-10.39715	24.56674	181.91064	0.0704586	14.19272	64.62118	66.5233	24.14664	0.3381	 	1.921352382E9	 	1.32894E-9	 	4695.487	27.2258	 
245.0	1.0	0.0	2.76624	10.09665	-10.43268	24.51442	181.80436	0.069826	14.32131	64.84683	66.64908	24.23564	0.33784	 	2.586576244E9	 	9.77725E-10	 	4559.638	27.1698	 
240.0	1.0	0.0	2.76734	10.09266	-10.46806	24.46214	181.69241	0.0691948	14.45195	65.07129	66.774	24.3242	0.33758	 	3.502351543E9	 	7.15107E-10	 	4424.07	27.1136	 
235.0	1.0	0.0	2.76843	10.08869	-10.5033	24.40989	181.57467	0.068565	14.58469	65.29454	66.89805	24.41231	0.33733	 	4.770727943E9	 	5.19869E-10	 	4288.783	27.0574	 
230.0	1.0	0.0	2.76951	10.08473	-10.5384	24.35768	181.45101	0.0679367	14.71959	65.5166	67.02126	24.49997	0.33708	 	6.538486906E9	 	3.75584E-10	 	4153.776	27.0014	 
225.0	1.0	0.0	2.7706	10.08079	-10.57337	24.30549	181.32131	0.0673097	14.85671	65.73746	67.14362	24.58718	0.33682	 	9.018158945E9	 	2.69606E-10	 	4019.051	26.945	 
220.0	1.0	0.0	2.77167	10.07686	-10.60819	24.25334	181.18544	0.066684	14.99609	65.95712	67.26515	24.67395	0.33657	 	1.2519599999999998E10	 	1.92254E-10	 	3884.609	26.8884	 
215.0	1.0	0.0	2.77275	10.07295	-10.64288	24.20122	181.04326	0.0660598	15.13781	66.17559	67.38585	24.76026	0.33633	 	1.74977E10	 	1.36163E-10	 	3750.448	26.8322	 
210.0	1.0	0.0	2.77382	10.06906	-10.67742	24.14914	180.89463	0.0654369	15.28191	66.39286	67.50574	24.84612	0.33608	 	2.4625299999999996E10	 	9.57608E-11	 	3616.572	26.7752	 
205.0	1.0	0.0	2.77489	10.06518	-10.71183	24.09708	180.73938	0.0648153	15.42846	66.60893	67.62481	24.93153	0.33584	 	3.49048E10	 	6.686E-11	 	3482.979	26.7186	 
200.0	1.0	0.0	2.77596	10.06132	-10.74609	24.04506	180.57738	0.0641951	15.57752	66.8238	67.74308	25.01649	0.3356	 	4.984139999999999E10	 	4.63335E-11	 	3349.671	26.6616	 
