T (C)	Fraction solid (wt)-TOTAL	Fraction liquid (wt)-LIQUID	Density (g/(cm)^3)-TOTAL	Molar volume (cm^3)-TOTAL	Volume change (%)-  	Average expansion coeff. (10e-6 1/K)-  	Thermal conductivity (W/(m*K))-TOTAL	Electrical resistivity (10e-6 Ohm*m)-TOTAL	Electrical conductivity (10e6 1/(Ohm*m))-TOTAL	Young's modulus (GPa)-TOTAL	Bulk modulus (GPa)-TOTAL	Shear modulus(GPa)-TOTAL	Poisson's ratio-TOTAL	Liquid viscosity (mPa s)-  	Total viscosity (mPa s)-  	Liquid diffusivity (10e-9 (m^2)/s)-  	Total diffusivity (10e-9 (m^2)/s)-  	Surface Tension (mN/m)-  	Enthalpy (J/mole)-TOTAL	Specific heat (J/(mole K))-TOTAL	Latent heat (J/mole)-TOTAL
700.0	0.0	1.0	2.47268	11.31704	0.0	66.46319	87.293	0.27313	3.66129	0.0	51.90819	0.0	0.5	1.3613	1.3613	3.48909	3.48909	856.63866	27840.529	 	0.0
690.0	0.0	1.0	2.47607	11.30154	-0.13698	66.68359	86.95319	0.27138	3.6849	0.0	52.04992	0.0	0.5	1.39209	1.39209	3.37687	3.37687	859.99943	27524.299	31.623	0.0
683.64	0.0	1.0	2.47822	11.29173	-0.22369	66.82998	86.73691	0.27026	3.70018	0.0	52.14012	0.0	0.5	1.41239	1.41239	3.30635	3.30635	862.13631	27323.079	31.6208	0.0
680.0	1.5E-4	0.99985	2.47946	11.28612	-0.27323	66.91495	86.61666	0.2696	3.70915	1.60934E-14	52.19183	5.36459E-15	0.49996	1.42409	1.42409	3.26672	3.26672	863.36513	27205.07	32.4515	3.028
670.0	5.2E-4	0.99948	2.48287	11.27059	-0.41045	67.14781	86.28381	0.2678	3.73407	2.62237E-12	52.33343	8.74198E-13	0.49987	1.45728	1.45728	3.15882	3.15882	866.7421	26881.146	32.3924	10.778
660.0	8.6E-4	0.99914	2.48626	11.25526	-0.54593	67.39835	85.95071	0.26599	3.75952	1.95133E-11	52.47572	6.50536E-12	0.49979	1.49203	1.49203	3.05254	3.05254	870.1145	26558.026	32.312	17.741
650.0	0.00116	0.99884	2.48964	11.24001	-0.68065	67.66157	85.61652	0.26417	3.78546	6.60124E-11	52.61813	2.20083E-11	0.49972	1.52843	1.52843	2.94791	2.94791	873.48222	26236.353	32.1673	23.98
649.6	0.00117	0.99883	2.48977	11.23938	-0.68623	67.67102	85.60298	0.2641	3.7865	6.86887E-11	52.62371	2.29006E-11	0.49971	1.52992	1.52992	2.94377	2.94377	873.61664	26223.554	 	24.215
640.0	0.01116	0.98884	2.49511	11.21526	-0.89942	67.41642	85.31287	0.26224	3.81335	4.39979E-7	52.81043	1.46932E-7	0.49721	1.56079	1.56079	2.85552	2.85552	876.9241	25772.492	46.3861	173.764
632.5	0.01809	0.98191	2.49909	11.19752	-1.05618	67.2726	85.0846	0.26078	3.83463	3.66501E-6	52.95996	1.22536E-6	0.49549	1.58625	1.58625	2.78661	2.78661	879.502	25434.212	 	277.456
632.5	0.01809	0.98191	2.49909	11.19751	-1.05619	67.27257	85.08462	0.26078	3.83463	3.66515E-6	52.95995	1.2254E-6	0.49549	1.58625	1.62116	2.78661	2.72661	879.50199	25434.206	 	277.462
630.0	0.06642	0.93358	2.50803	11.15747	-1.41003	65.33883	87.28349	0.25351	3.94463	1.75326E-4	52.84827	5.8865E-5	0.48922	1.60261	1.83121	2.75054	2.40718	879.42821	24815.347	95.7145	818.225
625.58	0.17686	0.82314	2.52831	11.068	-2.20062	60.84147	92.80733	0.23725	4.21491	0.0217894	53.15825	0.00738691	0.47486	1.64147	7.10717	2.67227	0.61719	878.43449	23449.221	 	2046.493
620.0	0.35081	0.64919	2.55885	10.93597	-3.36726	53.99636	102.62223	0.21323	4.68976	0.45009	53.68411	0.1551	0.45101	1.68073	90.70334	2.59367	0.0480604	875.6478	21302.701	351.265	4019.574
610.0	0.54678	0.45322	2.59493	10.78389	-4.71104	46.23196	116.18879	0.18622	5.36987	3.30394	54.4238	1.16072	0.42322	1.75968	643.12323	2.44955	0.00670235	871.48842	18774.853	252.785	6237.517
600.0	0.65471	0.34529	2.6163	10.6958	-5.48942	41.91634	125.93655	0.16986	5.88704	7.5449	55.03701	2.68063	0.4073	1.84538	1625.62477	2.30935	0.00262153	868.6457	17241.064	153.379	7462.779
594.55	0.69423	0.30577	2.62465	10.66176	-5.79024	40.32013	129.96647	0.16357	6.1136	9.90302	55.34264	3.53352	0.4013	1.8951	2306.81634	2.23471	0.00183587	867.51911	16622.442	 	7913.744
590.0	0.72069	0.27931	2.63049	10.6381	-5.9993	39.2452	132.80992	0.15923	6.28027	11.79533	55.58725	4.22106	0.3972	1.93825	2953.84957	2.17351	0.00142621	866.7734	16179.912	106.115	8216.774
583.8	0.74993	0.25007	2.63727	10.61076	-6.24086	38.04582	136.08384	0.15428	6.48165	14.22608	55.9086	5.10781	0.39258	1.99954	3963.09776	2.09176	0.00105538	866.00652	15654.502	 	8552.405
580.0	0.76472	0.23528	2.64089	10.59622	-6.36939	37.43041	137.79497	0.15169	6.59237	15.61062	56.09957	5.61457	0.39019	2.03871	4658.82673	2.04247	8.9379E-4	865.65757	15367.329	81.2583	8723.557
570.0	0.79579	0.20421	2.64901	10.56373	-6.65647	36.12503	141.5044	0.14598	6.85013	18.91079	56.58537	6.82689	0.38502	2.14687	6834.04903	1.91684	6.02162E-4	865.10656	14702.619	66.471	9083.811
560.0	0.81849	0.18151	2.65565	10.53734	-6.88964	35.15198	144.32668	0.14143	7.07062	21.72014	57.0509	7.86349	0.38108	2.26317	9618.83245	1.79677	4.22754E-4	864.96221	14135.189	56.743	9348.114
560.0	0.81849	0.18151	2.65565	10.53732	-6.88982	35.15083	144.32774	0.14143	7.07069	21.72128	57.05095	7.86391	0.38107	2.2632	9619.75325	1.79674	4.22712E-4	864.9626	14135.082	 	9348.16
550.0	0.83565	0.16435	2.6613	10.51495	-7.08747	34.39643	146.52134	0.13764	7.26534	24.12487	57.49998	8.75402	0.37793	2.3879	13219.7324	1.68248	3.03909E-4	865.12733	13632.265	50.2924	9549.217
549.69	0.8361	0.1639	2.66146	10.51432	-7.09306	34.37633	146.58042	0.13753	7.27099	24.19225	57.5136	8.77901	0.37785	2.39191	13345.84229	1.67903	3.00924E-4	865.13637	13617.689	 	9554.52
547.57	0.8402	0.1598	2.66268	10.5095	-7.13568	34.20735	147.10336	0.13669	7.31577	24.77436	57.60829	8.99504	0.37711	2.41477	14308.0529	1.65885	2.79964E-4	865.07421	13505.675	 	9602.732
547.57	0.84021	0.15979	2.66269	10.50947	-7.13595	34.20578	147.10602	0.13669	7.31596	24.77708	57.60854	8.99605	0.37711	2.41483	14311.40807	1.65879	2.79897E-4	865.07449	13505.369	 	9602.862
540.86	0.85149	0.14851	2.66629	10.49524	-7.26161	33.7294	148.55433	0.13425	7.44888	26.46834	57.90315	9.62465	0.37503	2.49125	17724.30983	1.59477	2.24154E-4	865.00402	13170.38	 	9736.284
540.86	0.85149	0.14851	2.66629	10.49524	-7.26161	33.7294	148.55433	0.13425	7.44888	26.46834	57.90315	9.62465	0.37503	2.49125	17724.30983	1.59477	2.24154E-4	865.00402	13170.38	 	9736.284
540.0	0.85382	0.14618	2.66687	10.493	-7.2814	33.64017	148.84732	0.13384	7.47144	26.82569	57.95236	9.75754	0.37461	2.50417	18294.96667	1.58487	2.16933E-4	865.23651	13113.206	51.9059	9767.744
530.0	0.87479	0.12521	2.67263	10.47036	-7.48151	32.80769	151.48634	0.12989	7.69858	30.29757	58.48123	11.0517	0.37072	2.66209	25780.83432	1.47252	1.5205E-4	867.68144	12531.287	58.1919	10050.395
525.95	0.88079	0.11921	2.6746	10.46266	-7.54957	32.5591	152.25195	0.12859	7.7767	31.39603	58.67738	11.46233	0.36953	2.72946	29326.77246	1.42893	1.32991E-4	868.59471	12329.351	 	10131.49
520.0	0.88804	0.11196	2.67726	10.45229	-7.6412	32.2504	153.17494	0.12686	7.88254	32.80392	58.95341	11.98952	0.36803	2.83182	35249.20711	1.36702	1.09823E-4	869.86353	12054.12	47.7167	10229.535
513.24	0.89465	0.10535	2.68003	10.44147	-7.73681	31.95647	154.0096	0.1251	7.99365	34.17825	59.25308	12.50513	0.36657	2.95279	43236.00887	1.29984	8.87724E-5	871.22113	11764.241	 	10318.573
512.22	0.9148	0.085204	2.68371	10.42715	-7.86329	31.04166	155.93466	0.12339	8.10409	37.39504	59.37354	13.7096	0.36383	2.99615	48058.22658	1.27937	7.97611E-5	875.03427	11505.418	 	10547.094
512.22	0.9148	0.085202	2.68371	10.42715	-7.86331	31.04154	155.93486	0.12339	8.10411	37.39541	59.37355	13.70974	0.36383	2.99615	48058.75504	1.27937	7.97602E-5	875.03437	11488.102	 	10564.408
510.82	0.93085	0.069154	2.6868	10.41519	-7.96901	30.30764	157.48674	0.12196	8.19929	40.13769	59.49066	14.73922	0.36159	3.05075	53022.11663	1.25424	7.21658E-5	879.50626	11264.333	 	10746.924
510.82	0.93085	0.069154	2.6868	10.41519	-7.96901	30.30764	157.48674	0.12196	8.19929	40.13769	59.49066	14.73922	0.36159	3.05075	53022.11663	1.25424	7.21658E-5	879.50626	11264.333	 	10746.924
510.0	0.93776	0.062243	2.68818	10.40986	-8.01612	29.99178	158.15761	0.12132	8.24288	41.37226	59.54842	15.20357	0.36061	3.08072	55624.67881	1.24073	6.8717E-5	881.9008	11161.131	89.2989	10825.711
502.92	0.96268	0.037323	2.6943	10.38652	-8.22228	28.80459	160.53661	0.11844	8.44319	46.25605	59.90973	17.0461	0.35679	3.31578	73672.10462	1.14236	5.14145E-5	897.4633	10668.415	 	11109.044
500.0	1.0	0.0	2.70061	10.36226	-8.4367	27.27453	163.563	0.11581	8.63486	53.89937	60.06378	19.95625	0.35044	 	90670.55186	 	4.16183E-5	 	10159.352	100.178	11531.863
490.0	1.0	0.0	2.70313	10.35261	-8.52197	27.16755	163.52345	0.11434	8.74589	54.47932	60.432	20.18126	0.34975	 	119154.6875	 	3.12597E-5	 	9857.23	30.2122	 
480.0	1.0	0.0	2.70563	10.34302	-8.60666	27.06069	163.47306	0.11288	8.85928	55.05433	60.79426	20.40456	0.34907	 	157727.2152	 	2.33057E-5	 	9572.12	28.511	 
470.0	1.0	0.0	2.70813	10.33351	-8.69077	26.95395	163.41166	0.11142	8.97512	55.62442	61.15069	20.62615	0.3484	 	210368.135	 	1.72418E-5	 	9273.238	29.8882	 
460.0	1.0	0.0	2.71061	10.32405	-8.7743	26.84733	163.33907	0.10997	9.0935	56.18957	61.50142	20.84603	0.34773	 	282790.7642	 	1.26536E-5	 	8975.826	29.7412	 
450.0	1.0	0.0	2.71307	10.31466	-8.85726	26.74084	163.25512	0.10852	9.21451	56.74979	61.84657	21.06418	0.34707	 	383269.2483	 	9.20897E-6	 	8679.819	29.6007	 
440.0	1.0	0.0	2.71553	10.30534	-8.93964	26.63447	163.15959	0.10709	9.33825	57.30508	62.18626	21.28061	0.34642	 	523896.7461	 	6.64388E-6	 	8385.157	29.4662	 
430.0	1.0	0.0	2.71797	10.29608	-9.02144	26.52823	163.0523	0.10565	9.46483	57.85546	62.52063	21.4953	0.34577	 	722517.5289	 	4.74992E-6	 	8091.776	29.3381	 
420.0	1.0	0.0	2.7204	10.28689	-9.10267	26.42211	162.93301	0.10423	9.59435	58.40091	62.84977	21.70826	0.34513	 	1005724.756	 	3.36384E-6	 	7799.618	29.2158	 
410.0	1.0	0.0	2.72281	10.27776	-9.18332	26.31611	162.8015	0.10281	9.72694	58.94144	63.17381	21.91948	0.3445	 	1413561.955	 	2.35878E-6	 	7508.638	29.098	 
400.0	1.0	0.0	2.72522	10.2687	-9.2634	26.21024	162.65754	0.10139	9.86271	59.47706	63.49284	22.12895	0.34387	 	2006979.383	 	1.63703E-6	 	7218.828	28.981	 
390.0	1.0	0.0	2.72761	10.2597	-9.34291	26.10449	162.50085	0.0999821	10.00179	60.00776	63.80698	22.33666	0.34326	 	2879798.056	 	1.12392E-6	 	6930.182	28.8646	 
380.0	1.0	0.0	2.72998	10.25077	-9.42185	25.99886	162.33119	0.0985773	10.14432	60.53355	64.11633	22.54262	0.34265	 	4178140.98	 	7.62986E-7	 	6642.694	28.7488	 
370.0	1.0	0.0	2.73235	10.2419	-9.50022	25.89336	162.14825	0.0971776	10.29044	61.05443	64.42098	22.74682	0.34204	 	6132394.236	 	5.11881E-7	 	6356.359	28.6335	 
360.0	1.0	0.0	2.7347	10.2331	-9.57802	25.78797	161.95174	0.0957827	10.4403	61.5704	64.72103	22.94925	0.34145	 	9110476.737	 	3.39197E-7	 	6071.171	28.5188	 
350.0	1.0	0.0	2.73704	10.22435	-9.65525	25.68272	161.74133	0.0943925	10.59406	62.08147	65.01658	23.14992	0.34086	 	1.370785889E7	 	2.21876E-7	 	5787.127	28.4044	 
340.0	1.0	0.0	2.73936	10.21568	-9.73192	25.57758	161.51668	0.093007	10.75188	62.58763	65.30772	23.3488	0.34028	 	2.090189152E7	 	1.43175E-7	 	5504.22	28.2907	 
330.0	1.0	0.0	2.74167	10.20707	-9.80802	25.47257	161.27742	0.0916258	10.91396	63.08889	65.59453	23.5459	0.3397	 	3.232040969E7	 	9.10825E-8	 	5222.448	28.1772	 
320.0	1.0	0.0	2.74397	10.19852	-9.88355	25.36769	161.02317	0.090249	11.08046	63.58524	65.8771	23.74122	0.33913	 	5.071666663E7	 	5.70822E-8	 	4941.806	28.0642	 
310.0	1.0	0.0	2.74626	10.19003	-9.95852	25.26292	160.75351	0.0888763	11.2516	64.0767	66.15552	23.93475	0.33857	 	8.08230942E7	 	3.52153E-8	 	4662.291	27.9515	 
300.0	1.0	0.0	2.74853	10.18161	-10.03293	25.15828	160.46799	0.0875076	11.42757	64.56326	66.42986	24.12648	0.33802	 	1.309128977E8	 	2.13684E-8	 	4383.901	27.839	 
290.0	1.0	0.0	2.75079	10.17326	-10.10677	25.05376	160.16613	0.0861429	11.60862	65.04493	66.70021	24.31642	0.33747	 	2.157087722E8	 	1.27422E-8	 	4106.633	27.7268	 
280.0	1.0	0.0	2.75303	10.16496	-10.18006	24.94937	159.84744	0.0847819	11.79497	65.5217	66.96664	24.50455	0.33693	 	3.619053525E8	 	7.45993E-9	 	3830.485	27.6148	 
270.0	1.0	0.0	2.75526	10.15673	-10.25278	24.8451	159.51135	0.0834246	11.98687	65.99358	67.22922	24.69087	0.3364	 	6.18866771E8	 	4.2836E-9	 	3555.457	27.5028	 
260.0	1.0	0.0	2.75748	10.14856	-10.32495	24.74095	159.15728	0.0820709	12.18459	66.46057	67.48804	24.87537	0.33587	 	1.07979151E9	 	2.40988E-9	 	3281.547	27.391	 
250.0	1.0	0.0	2.75968	10.14046	-10.39655	24.63693	158.78459	0.0807205	12.38842	66.92267	67.74316	25.05807	0.33535	 	1.924529029E9	 	1.32675E-9	 	3008.757	27.279	 
240.0	1.0	0.0	2.76187	10.13242	-10.4676	24.53303	158.3926	0.0793735	12.59866	67.37989	67.99465	25.23893	0.33484	 	3.508254869E9	 	7.13904E-10	 	2737.088	27.1669	 
230.0	1.0	0.0	2.76405	10.12444	-10.5381	24.42925	157.98056	0.0780297	12.81563	67.83222	68.24257	25.41798	0.33434	 	6.5497266E9	 	3.74939E-10	 	2466.542	27.0546	 
220.0	1.0	0.0	2.76621	10.11653	-10.60804	24.3256	157.54769	0.076689	13.03968	68.27967	68.48701	25.59519	0.33384	 	1.2541499999999998E10	 	1.91918E-10	 	2197.121	26.9421	 
210.0	1.0	0.0	2.76836	10.10868	-10.67742	24.22207	157.09311	0.0753513	13.27117	68.72225	68.72801	25.77057	0.33335	 	2.4669399999999996E10	 	9.55897E-11	 	1928.831	26.829	 
200.0	1.0	0.0	2.77049	10.10089	-10.74625	24.11866	156.61587	0.0740166	13.51048	69.15994	68.96565	25.94412	0.33286	 	4.993249999999999E10	 	4.6249E-11	 	1661.677	26.7154	 
190.0	1.0	0.0	2.77261	10.09316	-10.81453	24.01538	156.11496	0.0726847	13.75805	69.59277	69.19998	26.11582	0.33239	 	1.04192E11	 	2.16958E-11	 	1395.665	26.6012	 
180.0	1.0	0.0	2.77472	10.08549	-10.88226	23.91222	155.58927	0.0713557	14.01431	70.02072	69.43106	26.28567	0.33192	 	2.24585E11	 	9.84798E-12	 	1130.804	26.4861	 
170.0	1.0	0.0	2.77682	10.07789	-10.94943	23.80918	155.03756	0.0700293	14.27973	70.4438	69.65896	26.45368	0.33146	 	5.01168E11	 	4.31573E-12	 	867.104	26.37	 
160.0	1.0	0.0	2.77889	10.07035	-11.01606	23.70627	154.45852	0.0687057	14.55484	70.86202	69.88373	26.61984	0.331	 	1.1606E12	 	1.82156E-12	 	604.577	26.2527	 
150.0	1.0	0.0	2.78096	10.06287	-11.08214	23.60348	153.85069	0.0673847	14.84017	71.27537	70.10543	26.78414	0.33055	 	2.79652E12	 	7.38523E-13	 	343.236	26.1341	 
140.0	1.0	0.0	2.78301	10.05546	-11.14768	23.50082	153.21246	0.0660663	15.13632	71.68387	70.32411	26.94658	0.33011	 	7.0314E12	 	2.86783E-13	 	83.099	26.0137	 
130.0	1.0	0.0	2.78505	10.0481	-11.21266	23.39827	152.54206	0.0647505	15.4439	72.08751	70.53983	27.10716	0.32968	 	1.85068E13	 	1.06322E-13	 	-175.816	25.8915	 
120.0	1.0	0.0	2.78707	10.04081	-11.2771	23.29585	151.83756	0.0634374	15.76358	72.48631	70.75264	27.26588	0.32925	 	5.11683E13	 	3.75011E-14	 	-433.487	25.7671	 
110.0	1.0	0.0	2.78908	10.03358	-11.341	23.19356	151.0968	0.0621269	16.09609	72.88026	70.9626	27.42273	0.32883	 	1.49185E14	 	1.25352E-14	 	-689.889	25.6402	 
100.0	1.0	0.0	2.79107	10.02641	-11.40435	23.09138	150.31739	0.0608191	16.44219	73.26937	71.16976	27.57771	0.32842	 	4.60636E14	 	3.95378E-15	 	-944.992	25.5103	 
90.0	1.0	0.0	2.79305	10.0193	-11.46716	22.98934	149.49668	0.0595142	16.80271	73.65365	71.37416	27.73083	0.32801	 	1.51341E15	 	1.17116E-15	 	-1198.764	25.3772	 
80.0	1.0	0.0	2.79502	10.01225	-11.52943	22.88741	148.63171	0.0582122	17.17854	74.03311	71.57586	27.88207	0.32761	 	5.31877E15	 	3.24067E-16	 	-1451.165	25.2401	 
70.0	1.0	0.0	2.79697	10.00527	-11.59116	22.78561	147.71917	0.0569132	17.57061	74.40774	71.77492	28.03143	0.32722	 	2.01132E16	 	8.32703E-17	 	-1702.151	25.0986	 
60.0	1.0	0.0	2.79891	9.99834	-11.65235	22.68393	146.75534	0.0556176	17.97993	74.77757	71.97137	28.17893	0.32683	 	8.23815E16	 	1.97377E-17	 	-1951.673	24.9522	 
50.0	1.0	0.0	2.80083	9.99148	-11.713	22.58237	145.73603	0.0543254	18.40758	75.1426	72.16528	28.32455	0.32646	 	3.68194E17	 	4.28365E-18	 	-2199.672	24.7999	 
40.0	1.0	0.0	2.80274	9.98468	-11.77311	22.48094	144.65651	0.0530372	18.85469	75.50284	72.35669	28.46829	0.32609	 	1.81073E18	 	8.44083E-19	 	-2446.081	24.6409	 
30.0	1.0	0.0	2.80463	9.97793	-11.83269	22.37963	143.51142	0.0517532	19.32248	75.85831	72.54566	28.61017	0.32572	 	9.89168E18	 	1.4958E-19	 	-2690.823	24.4742	 
25.0	1.0	0.0	2.80557	9.97458	-11.86228	 	142.9124	0.051113	19.56451	76.03425	72.63924	28.6804	0.32554	 	2.41284E19	 	6.03106E-20	 	-2812.541	 	 
