T (C)	Fraction solid (wt)-TOTAL	Fraction liquid (wt)-LIQUID	Density (g/(cm)^3)-TOTAL	Molar volume (cm^3)-TOTAL	Volume change (%)-  	Average expansion coeff. (10e-6 1/K)-  	Thermal conductivity (W/(m*K))-TOTAL	Electrical resistivity (10e-6 Ohm*m)-TOTAL	Electrical conductivity (10e6 1/(Ohm*m))-TOTAL	Young's modulus (GPa)-TOTAL	Bulk modulus (GPa)-TOTAL	Shear modulus(GPa)-TOTAL	Poisson's ratio-TOTAL	Liquid viscosity (mPa s)-  	Total viscosity (mPa s)-  	Liquid diffusivity (10e-9 (m^2)/s)-  	Total diffusivity (10e-9 (m^2)/s)-  	Surface Tension (mN/m)-  	Enthalpy (J/mole)-TOTAL	Specific heat (J/(mole K))-TOTAL	Latent heat (J/mole)-TOTAL
700.0	0.0	1.0	2.47509	11.28825	0.0	66.86055	89.04635	0.26775	3.73482	0.0	51.63392	0.0	0.5	1.2937	1.2937	3.67141	3.67141	754.73697	28948.97	 	0.0
695.0	0.0	1.0	2.47678	11.28051	-0.0685734	66.97215	88.87678	0.26688	3.74696	0.0	51.70568	0.0	0.5	1.3078	1.3078	3.61316	3.61316	755.8199	28791.313	31.5314	0.0
690.0	0.0	1.0	2.47848	11.27279	-0.13693	67.08669	88.7072	0.26601	3.75923	0.0	51.77744	0.0	0.5	1.32221	1.32221	3.55534	3.55534	756.90155	28633.662	31.5302	0.0
685.0	0.0	1.0	2.48017	11.2651	-0.20506	67.20422	88.53759	0.26514	3.77162	0.0	51.8492	0.0	0.5	1.33692	1.33692	3.49796	3.49796	757.98187	28476.016	31.5292	0.0
683.84	0.0	1.0	2.48056	11.26333	-0.22078	67.23184	88.49836	0.26494	3.7745	0.0	51.86579	0.0	0.5	1.34037	1.34037	3.48475	3.48475	758.23147	28439.564	31.5291	0.0
680.0	1.9E-4	0.99981	2.48188	11.2573	-0.27423	67.31756	88.37131	0.26425	3.78429	4.33186E-14	51.92064	1.444E-14	0.49995	1.35176	1.35176	3.4415	3.4415	759.05633	28314.633	32.5014	3.745
675.0	4.2E-4	0.99958	2.48359	11.24951	-0.34319	67.43386	88.20608	0.26336	3.79713	1.10602E-12	51.99224	3.687E-13	0.49989	1.36688	1.36688	3.38559	3.38559	760.12827	28152.344	32.4578	8.399
670.0	6.4E-4	0.99936	2.4853	11.24178	-0.41165	67.5549	88.04078	0.26246	3.81011	6.05161E-12	52.0641	2.01742E-12	0.49984	1.38234	1.38234	3.33007	3.33007	761.19894	27990.292	32.4104	12.822
665.0	8.5E-4	0.99915	2.48701	11.23411	-0.47962	67.68076	87.87542	0.26156	3.82322	1.89329E-11	52.13617	6.31185E-12	0.49979	1.39815	1.39815	3.27494	3.27494	762.26823	27828.467	32.365	17.024
660.0	0.00105	0.99895	2.4887	11.22648	-0.54719	67.81092	87.70995	0.26066	3.83647	4.42361E-11	52.20832	1.47479E-11	0.49974	1.41433	1.41433	3.22023	3.22023	763.33605	27666.851	32.3232	21.01
655.0	0.00124	0.99876	2.4904	11.2188	-0.61529	67.94004	87.54355	0.25975	3.84982	8.63659E-11	52.28017	2.87946E-11	0.49969	1.43089	1.43089	3.16591	3.16591	764.40244	27505.641	32.242	24.793
650.0	0.00142	0.99858	2.49209	11.21117	-0.68284	68.07449	87.37715	0.25885	3.86331	1.49255E-10	52.35233	4.97635E-11	0.49965	1.44784	1.44784	3.112	3.112	765.4672	27344.961	32.136	28.381
645.0	0.00159	0.99841	2.49377	11.20358	-0.75011	68.21285	87.21059	0.25794	3.87694	2.36223E-10	52.42441	7.87619E-11	0.4996	1.46518	1.46518	3.05851	3.05851	766.27735	27184.808	32.0306	31.779
641.91	0.00169	0.99831	2.49481	11.19894	-0.79118	68.302	87.10796	0.25737	3.88544	3.02954E-10	52.46914	1.01013E-10	0.49958	1.47609	1.47609	3.02571	3.02571	766.94149	27086.254	 	33.785
641.91	0.00169	0.99831	2.49481	11.19894	-0.79118	68.30199	87.10798	0.25737	3.88544	3.02954E-10	52.46914	1.01013E-10	0.49958	1.47609	1.47898	3.02571	3.01979	766.94149	27086.25	 	33.788
640.0	0.04112	0.95888	2.50189	11.16733	-1.07122	66.79135	89.07944	0.25115	3.98171	8.56702E-5	52.60355	2.86538E-5	0.49492	1.48615	1.58223	2.99892	2.81682	766.67369	26595.303	117.901	464.873
635.85	0.15878	0.84122	2.52287	11.07441	-1.89438	62.14511	95.38168	0.23349	4.28287	0.0223614	53.04342	0.00755046	0.48079	1.51474	4.68202	2.92896	0.94758	765.4177	25181.578	 	1749.027
635.0	0.18378	0.81622	2.52741	11.05451	-2.07067	61.13789	96.75542	0.22996	4.34862	0.0399259	53.12138	0.0135104	0.4776	1.52042	7.05929	2.91529	0.62789	765.12334	24877.387	343.583	2026.714
630.0	0.3357	0.6643	2.5553	10.93383	-3.13972	54.95565	106.10506	0.20854	4.79524	0.46002	53.60199	0.15777	0.45793	1.56081	64.98983	2.82421	0.0678268	763.11211	23038.815	367.714	3709.556
625.0	0.44843	0.55157	2.57666	10.84308	-3.94366	50.34255	114.52239	0.19214	5.20446	1.53849	54.01921	0.5331	0.44295	1.60524	222.51863	2.73084	0.0197001	761.49998	21635.673	280.628	4957.311
620.0	0.53096	0.46904	2.5928	10.77536	-4.54357	46.94969	121.52274	0.18007	5.5535	3.14983	54.38306	1.10001	0.43173	1.65223	480.02129	2.6384	0.00908135	760.31024	20567.312	213.672	5870.627
619.22	0.54157	0.45843	2.59492	10.76651	-4.62201	46.51143	122.52551	0.17844	5.6042	3.42791	54.43563	1.19835	0.43026	1.6597	527.37096	2.62425	0.00825881	760.1553	20425.848	 	5988.073
619.22	0.54157	0.45843	2.59492	10.76651	-4.62202	46.5114	122.52551	0.17844	5.6042	3.42792	54.43563	1.19835	0.43026	1.6597	527.37467	2.62424	0.00825875	760.15539	20425.845	 	5988.064
615.0	0.59752	0.40248	2.60611	10.72001	-5.03388	44.20241	128.11434	0.16985	5.8877	5.22458	54.71972	1.83645	0.42247	1.70108	848.44453	2.54828	0.00510916	759.34731	19660.613	181.34	6622.621
610.0	0.64817	0.35183	2.61657	10.67679	-5.41683	42.10277	133.67895	0.16186	6.17821	7.43413	55.02669	2.62636	0.41529	1.75228	1298.48477	2.4599	0.00331959	758.69271	18932.763	145.57	7196.106
605.0	0.68709	0.31291	2.62489	10.64249	-5.72063	40.48331	138.31255	0.15555	6.42875	9.59933	55.31173	3.40482	0.40967	1.80578	1816.16208	2.3735	0.00235994	758.2852	18338.616	118.829	7636.227
600.0	0.71785	0.28215	2.63173	10.61436	-5.96988	39.19481	142.21002	0.15043	6.64776	11.65495	55.58056	4.14726	0.40514	1.86154	2401.08563	2.2893	0.00177488	758.06789	17837.374	100.248	7983.784
595.0	0.74274	0.25726	2.63749	10.59071	-6.17938	38.14759	145.52046	0.14616	6.84169	13.57441	55.8371	4.84316	0.4014	1.9195	3057.67303	2.20746	0.00138577	757.99999	17402.946	86.8856	8264.862
590.0	0.76328	0.23672	2.64244	10.57035	-6.35973	37.27708	148.36583	0.14253	7.01587	15.35686	56.0839	5.49146	0.39825	1.97968	3794.86037	2.12803	0.00111014	758.05192	17017.904	77.0084	8496.89
585.76	0.77805	0.22195	2.64614	10.55511	-6.49474	36.64752	150.47674	0.13984	7.15078	16.76184	56.28665	6.00381	0.39593	2.03236	4490.25893	2.0627	9.33609E-4	758.17236	16721.541	 	8663.884
585.0	0.78067	0.21933	2.64681	10.55235	-6.51919	36.5323	150.84068	0.13938	7.17446	17.02177	56.32148	6.0988	0.3955	2.04176	4626.93526	2.05138	9.05225E-4	758.20159	16668.598	69.8612	8693.517
580.0	0.79646	0.20354	2.65092	10.53545	-6.66891	35.8404	153.05793	0.13656	7.32258	18.66414	56.54697	6.69987	0.39287	2.10449	5589.9347	1.97863	7.44913E-4	758.4448	16337.626	66.1944	8872.143
575.0	0.81003	0.18997	2.65461	10.52026	-6.80346	35.24035	155.00691	0.13406	7.45954	20.19229	56.76777	7.2605	0.39056	2.16945	6679.01917	1.90814	6.19793E-4	758.76293	16031.52	61.2212	9026.234
570.0	0.8218	0.1782	2.65796	10.50645	-6.92575	34.71443	156.7294	0.1318	7.58717	21.61356	56.98445	7.78306	0.3885	2.23672	7912.77264	1.83984	5.20071E-4	759.14485	15745.729	57.1582	9160.34
566.26	0.82959	0.17041	2.66027	10.4969	-7.01036	34.36262	157.89161	0.13025	7.67747	22.61118	57.14409	8.1505	0.3871	2.28857	8942.70618	1.79018	4.58134E-4	759.46612	15543.27	 	9249.593
560.0	0.84429	0.15571	2.66427	10.48041	-7.15649	33.73104	159.99534	0.12758	7.83823	24.52177	57.40932	8.85582	0.3845	2.37447	11048.77995	1.71255	3.6804E-4	759.90799	15185.436	56.0293	9418.242
555.0	0.85371	0.14629	2.66707	10.46884	-7.25901	33.31721	161.39696	0.12571	7.95464	25.85032	57.61772	9.34728	0.38277	2.44676	12960.22375	1.65198	3.11877E-4	760.34825	14926.022	51.8828	9526.945
550.0	0.86168	0.13832	2.66962	10.4583	-7.35231	32.96192	162.61256	0.12402	8.06323	27.04334	57.82331	9.78932	0.38127	2.52223	15119.3646	1.59287	2.65725E-4	760.84774	14683.599	48.4846	9618.978
545.0	0.86853	0.13147	2.67197	10.44856	-7.43867	32.65029	163.68114	0.12246	8.16582	28.12752	58.02596	10.19164	0.37993	2.60077	17571.35148	1.53539	2.27256E-4	761.39432	14454.28	45.8638	9698.226
540.0	0.87449	0.12551	2.67417	10.43944	-7.51945	32.37367	164.63135	0.12101	8.26372	29.12274	58.22607	10.56145	0.37873	2.68248	20367.88528	1.47952	1.94855E-4	761.97897	14235.308	43.7944	9767.441
535.0	0.87974	0.12026	2.67624	10.43083	-7.59574	32.12491	165.48302	0.11965	8.35787	30.04369	58.4235	10.90411	0.37763	2.76721	23567.72186	1.4254	1.67364E-4	762.59501	14024.675	42.1266	9828.629
530.0	0.88441	0.11559	2.67821	10.42264	-7.66829	31.89929	166.25302	0.11836	8.44903	30.90289	58.61865	11.2242	0.37662	2.8552	27240.29853	1.37292	1.43904E-4	763.23729	13820.886	40.7578	9883.282
525.0	0.88862	0.11138	2.6801	10.4148	-7.73773	31.69267	166.95275	0.11713	8.53774	31.70912	58.81149	11.52491	0.37568	2.94641	31465.48135	1.32214	1.23805E-4	763.90188	13622.806	39.616	9932.533
520.0	0.89243	0.10757	2.68191	10.40726	-7.80448	31.50244	167.59282	0.11595	8.6245	32.47091	59.0021	11.80936	0.37479	3.04091	36338.47517	1.27303	1.06531E-4	764.58554	13429.556	38.65	9977.258
515.0	0.8959	0.1041	2.68367	10.39997	-7.86908	31.32492	168.18046	0.11482	8.70965	33.19423	59.19053	12.07976	0.37396	3.13887	41970.11635	1.22552	9.16548E-5	765.2859	13240.444	37.8224	10018.144
511.38	0.89823	0.10177	2.6849	10.39484	-7.91452	31.20419	168.57655	0.11402	8.77039	33.69568	59.32559	12.26739	0.37338	3.21199	46587.44598	1.19213	8.21921E-5	765.80146	13105.982	 	10045.614
510.92	0.89984	0.10016	2.68525	10.39349	-7.92651	31.1404	168.72037	0.11386	8.78304	33.94508	59.33632	12.36114	0.37306	3.21739	47432.07889	1.18943	8.0681E-5	765.69883	13075.398	 	10062.557
510.0	0.93678	0.0632207	2.69043	10.37212	-8.11583	29.72236	171.99376	0.11156	8.964	39.87741	59.15663	14.59977	0.36569	3.23388	55652.21339	1.18197	6.8683E-5	763.32181	12610.671	125.955	10499.987
508.05	0.96519	0.0348098	2.69467	10.35445	-8.27231	28.61649	174.5613	0.10964	9.12054	45.0395	59.06556	16.55956	0.35992	3.26551	64815.06188	1.16761	5.88263E-5	760.92052	12217.71	 	10835.278
508.05	0.96519	0.0348098	2.69467	10.35445	-8.27231	28.61649	174.5613	0.10964	9.12054	45.0395	59.06556	16.55956	0.35992	3.26551	64815.14747	1.16761	5.88263E-5	760.92053	12217.707	 	10835.28
505.0	0.99139	0.00860987	2.69834	10.33847	-8.41386	27.68213	176.8323	0.10781	9.27539	50.33176	59.14913	18.57578	0.35477	3.31937	76919.07405	1.14418	4.9376E-5	758.67541	11822.994	157.535	11140.029
500.0	1.0	0.0	2.70037	10.3292	-8.49603	27.31881	177.63023	0.10664	9.3775	52.39939	59.32493	19.36716	0.35279	 	90544.10761	 	4.16764E-5	 	11573.273	49.9442	11242.404
495.0	1.0	0.0	2.70163	10.32437	-8.53882	27.26484	177.69628	0.10591	9.44205	52.68614	59.50825	19.47818	0.35244	 	103703.2924	 	3.61527E-5	 	11373.094	40.0358	 
490.0	1.0	0.0	2.70289	10.31955	-8.58147	27.2109	177.75964	0.10518	9.5073	52.97169	59.6901	19.58878	0.35209	 	118986.3444	 	3.1304E-5	 	11222.286	30.1616	 
485.0	1.0	0.0	2.70415	10.31476	-8.62397	27.15699	177.82029	0.10446	9.57327	53.25603	59.87047	19.69897	0.35175	 	136769.4822	 	2.70553E-5	 	11071.88	30.0812	 
480.0	1.0	0.0	2.7054	10.30997	-8.66633	27.10311	177.8782	0.10373	9.63996	53.53916	60.0494	19.80874	0.3514	 	157501.419	 	2.33391E-5	 	10921.866	30.0028	 
475.0	1.0	0.0	2.70666	10.30521	-8.70854	27.04927	177.93334	0.10301	9.70739	53.82133	60.22717	19.91818	0.35106	 	181718.4527	 	2.00945E-5	 	10772.236	29.926	 
470.0	1.0	0.0	2.7079	10.30046	-8.7506	26.99545	177.98569	0.1023	9.77558	54.10206	60.40326	20.02712	0.35072	 	210062.9295	 	1.72669E-5	 	10622.984	29.8504	 
465.0	1.0	0.0	2.70915	10.29573	-8.79252	26.94167	178.03521	0.10158	9.84453	54.38158	60.57794	20.13564	0.35038	 	243305.8875	 	1.48074E-5	 	10474.1	29.7768	 
460.0	1.0	0.0	2.71039	10.29101	-8.83429	26.88792	178.08188	0.10086	9.91427	54.65989	60.75124	20.24374	0.35004	 	282374.8933	 	1.26722E-5	 	10325.578	29.7044	 
455.0	1.0	0.0	2.71163	10.28632	-8.87591	26.83421	178.12568	0.10015	9.9848	54.937	60.92317	20.35141	0.34971	 	328388.3414	 	1.08223E-5	 	10177.408	29.634	 
450.0	1.0	0.0	2.71286	10.28163	-8.91739	26.78052	178.16655	0.0994416	10.05615	55.21291	61.09376	20.45867	0.34938	 	382697.8237	 	9.22272E-6	 	10029.584	29.5648	 
445.0	1.0	0.0	2.71409	10.27697	-8.95873	26.72687	178.20449	0.0987331	10.12832	55.48761	61.263	20.56551	0.34905	 	446940.5956	 	7.84246E-6	 	9882.097	29.4974	 
440.0	1.0	0.0	2.71532	10.27232	-8.99992	26.67325	178.23945	0.0980264	10.20133	55.7611	61.43093	20.67192	0.34872	 	523104.7097	 	6.65394E-6	 	9734.94	29.4314	 
435.0	1.0	0.0	2.71655	10.26768	-9.04096	26.61966	178.2714	0.0973217	10.2752	56.0334	61.59755	20.77791	0.34839	 	613610.0868	 	5.63274E-6	 	9588.104	29.3672	 
430.0	1.0	0.0	2.71777	10.26307	-9.08186	26.5661	178.30031	0.0966189	10.34994	56.30449	61.76288	20.88348	0.34806	 	721409.6875	 	4.75721E-6	 	9441.582	29.3044	 
425.0	1.0	0.0	2.71899	10.25847	-9.12262	26.51258	178.32615	0.0959179	10.42558	56.57438	61.92694	20.98863	0.34774	 	850116.1095	 	4.00827E-6	 	9295.367	29.243	 
420.0	1.0	0.0	2.7202	10.25388	-9.16323	26.45909	178.34887	0.0952189	10.50212	56.84306	62.08973	21.09335	0.34742	 	1004160.435	 	3.36908E-6	 	9149.45	29.1834	 
415.0	1.0	0.0	2.72142	10.24932	-9.20369	26.40563	178.36844	0.0945216	10.57959	57.11055	62.25127	21.19764	0.3471	 	1188992.102	 	2.82482E-6	 	9003.827	29.1246	 
410.0	1.0	0.0	2.72263	10.24476	-9.24401	26.3522	178.38483	0.0938262	10.658	57.37682	62.41158	21.30151	0.34678	 	1411331.111	 	2.36251E-6	 	8858.498	29.0658	 
405.0	1.0	0.0	2.72383	10.24023	-9.28419	26.2988	178.398	0.0931326	10.73738	57.6419	62.57067	21.40495	0.34646	 	1679487.204	 	1.97077E-6	 	8713.462	29.0072	 
400.0	1.0	0.0	2.72503	10.23571	-9.32422	26.24544	178.4079	0.0924408	10.81773	57.90578	62.72855	21.50797	0.34615	 	2003764.998	 	1.63965E-6	 	8568.719	28.9486	 
395.0	1.0	0.0	2.72623	10.23121	-9.36411	26.19211	178.4145	0.0917508	10.89909	58.16845	62.88524	21.61055	0.34583	 	2396979.781	 	1.36049E-6	 	8424.267	28.8904	 
390.0	1.0	0.0	2.72743	10.22672	-9.40385	26.13881	178.41776	0.0910625	10.98146	58.42992	63.04075	21.71271	0.34552	 	2875116.249	 	1.12575E-6	 	8280.106	28.8322	 
385.0	1.0	0.0	2.72862	10.22225	-9.44345	26.08554	178.41763	0.090376	11.06488	58.69019	63.19509	21.81444	0.34521	 	3458172.443	 	9.28891E-7	 	8136.235	28.7742	 
380.0	1.0	0.0	2.72981	10.2178	-9.4829	26.03231	178.41407	0.0896912	11.14936	58.94926	63.34828	21.91574	0.34491	 	4171244.467	 	7.64247E-7	 	7992.654	28.7162	 
375.0	1.0	0.0	2.731	10.21336	-9.52222	25.9791	178.40703	0.0890081	11.23493	59.20713	63.50032	22.01661	0.3446	 	5045925.299	 	6.26933E-7	 	7849.361	28.6586	 
370.0	1.0	0.0	2.73218	10.20894	-9.56139	25.92593	178.39647	0.0883267	11.3216	59.4638	63.65123	22.11705	0.3443	 	6122114.71	 	5.1274E-7	 	7706.357	28.6008	 
365.0	1.0	0.0	2.73336	10.20453	-9.60041	25.87279	178.38235	0.087647	11.40941	59.71926	63.80103	22.21705	0.344	 	7450369.238	 	4.18053E-7	 	7563.64	28.5434	 
360.0	1.0	0.0	2.73454	10.20014	-9.63929	25.81969	178.3646	0.0869689	11.49836	59.97353	63.94971	22.31663	0.3437	 	9094964.102	 	3.39776E-7	 	7421.209	28.4862	 
355.0	1.0	0.0	2.73571	10.19577	-9.67803	25.76661	178.34318	0.0862925	11.5885	60.22659	64.09731	22.41577	0.3434	 	1.113789713E7	 	2.75262E-7	 	7279.065	28.4288	 
350.0	1.0	0.0	2.73688	10.19141	-9.71663	25.71357	178.31804	0.0856177	11.67983	60.47846	64.24382	22.51447	0.3431	 	1.368414386E7	 	2.2226E-7	 	7137.207	28.3716	 
345.0	1.0	0.0	2.73804	10.18707	-9.75508	25.66056	178.28913	0.0849445	11.7724	60.72912	64.38925	22.61275	0.34281	 	1.686858075E7	 	1.78855E-7	 	6995.634	28.3146	 
340.0	1.0	0.0	2.73921	10.18275	-9.79339	25.60758	178.25638	0.0842729	11.86622	60.97859	64.53363	22.71058	0.34251	 	2.086514122E7	 	1.43427E-7	 	6854.346	28.2576	 
335.0	1.0	0.0	2.74037	10.17844	-9.83156	25.55463	178.21975	0.0836028	11.96132	61.22685	64.67696	22.80799	0.34222	 	2.589897245E7	 	1.14608E-7	 	6713.342	28.2008	 
330.0	1.0	0.0	2.74152	10.17415	-9.86958	25.50172	178.17917	0.0829344	12.05773	61.47392	64.81925	22.90495	0.34194	 	3.226264149E7	 	9.12456E-8	 	6572.621	28.1442	 
325.0	1.0	0.0	2.74268	10.16987	-9.90747	25.44884	178.13458	0.0822674	12.15548	61.71979	64.96051	23.00148	0.34165	 	4.033782888E7	 	7.23743E-8	 	6432.184	28.0874	 
320.0	1.0	0.0	2.74382	10.16561	-9.94521	25.39599	178.08592	0.081602	12.2546	61.96445	65.10076	23.09758	0.34136	 	5.062449051E7	 	5.71861E-8	 	6292.029	28.031	 
315.0	1.0	0.0	2.74497	10.16137	-9.98281	25.34317	178.03313	0.0809382	12.35511	62.20792	65.24	23.19323	0.34108	 	6.378022886E7	 	4.50079E-8	 	6152.157	27.9744	 
310.0	1.0	0.0	2.74611	10.15714	-10.02026	25.29038	177.97613	0.0802758	12.45706	62.45019	65.37825	23.28845	0.3408	 	8.067368331E7	 	3.52805E-8	 	6012.567	27.918	 
305.0	1.0	0.0	2.74725	10.15293	-10.05758	25.23763	177.91487	0.0796149	12.56046	62.69126	65.51551	23.38322	0.34052	 	1.024572604E8	 	2.75413E-8	 	5873.259	27.8616	 
300.0	1.0	0.0	2.74839	10.14873	-10.09475	25.18491	177.84925	0.0789555	12.66536	62.93113	65.65179	23.47756	0.34024	 	1.306666707E8	 	2.14087E-8	 	5734.232	27.8054	 
295.0	1.0	0.0	2.74952	10.14455	-10.13178	25.13222	177.77923	0.0782975	12.77179	63.16981	65.78711	23.57146	0.33996	 	1.673578027E8	 	1.65693E-8	 	5595.486	27.7492	 
290.0	1.0	0.0	2.75065	10.14039	-10.16867	25.07956	177.70471	0.077641	12.87979	63.40728	65.92147	23.66491	0.33969	 	2.152958583E8	 	1.27666E-8	 	5457.021	27.693	 
285.0	1.0	0.0	2.75178	10.13624	-10.20542	25.02694	177.62561	0.0769859	12.98938	63.64356	66.05489	23.75792	0.33942	 	2.782180147E8	 	9.79157E-9	 	5318.837	27.6368	 
280.0	1.0	0.0	2.7529	10.13211	-10.24203	24.97434	177.54187	0.0763323	13.10062	63.87864	66.18737	23.8505	0.33915	 	3.612000718E8	 	7.47449E-9	 	5180.934	27.5806	 
275.0	1.0	0.0	2.75402	10.12799	-10.27849	24.92178	177.45338	0.07568	13.21353	64.11252	66.31892	23.94263	0.33888	 	4.711709464E8	 	5.67816E-9	 	5043.311	27.5246	 
270.0	1.0	0.0	2.75513	10.12389	-10.31482	24.86925	177.36007	0.0750291	13.32815	64.3452	66.44955	24.03431	0.33861	 	6.176385373E8	 	4.29212E-9	 	4905.968	27.4686	 
265.0	1.0	0.0	2.75624	10.1198	-10.351	24.81675	177.26183	0.0743797	13.44454	64.57669	66.57928	24.12555	0.33835	 	8.137194807E8	 	3.22786E-9	 	4768.906	27.4124	 
260.0	1.0	0.0	2.75735	10.11574	-10.38705	24.76429	177.15859	0.0737315	13.56272	64.80698	66.70811	24.21635	0.33808	 	1.07760834E9	 	2.41477E-9	 	4632.125	27.3562	 
255.0	1.0	0.0	2.75846	10.11168	-10.42295	24.71186	177.05023	0.0730848	13.68274	65.03607	66.83604	24.3067	0.33782	 	1.434686011E9	 	1.79675E-9	 	4495.624	27.3002	 
250.0	1.0	0.0	2.75956	10.10765	-10.45871	24.65946	176.93667	0.0724393	13.80465	65.26397	66.9631	24.39661	0.33756	 	1.920563615E9	 	1.32949E-9	 	4359.403	27.2442	 
245.0	1.0	0.0	2.76066	10.10362	-10.49434	24.60709	176.81778	0.0717952	13.9285	65.49067	67.08928	24.48607	0.3373	 	2.585504063E9	 	9.78131E-10	 	4223.464	27.1878	 
240.0	1.0	0.0	2.76175	10.09962	-10.52982	24.55475	176.69347	0.0711525	14.05433	65.71617	67.21459	24.57508	0.33705	 	3.500885508E9	 	7.15407E-10	 	4087.805	27.1318	 
235.0	1.0	0.0	2.76284	10.09563	-10.56516	24.50245	176.56362	0.070511	14.18219	65.94048	67.33905	24.66365	0.33679	 	4.76871119E9	 	5.20089E-10	 	3952.428	27.0754	 
230.0	1.0	0.0	2.76393	10.09166	-10.60036	24.45018	176.42811	0.0698708	14.31213	66.16359	67.46267	24.75177	0.33654	 	6.535695194E9	 	3.75744E-10	 	3817.333	27.019	 
225.0	1.0	0.0	2.76502	10.0877	-10.63543	24.39794	176.28681	0.0692319	14.4442	66.38551	67.58544	24.83944	0.33629	 	9.014269575E9	 	2.69722E-10	 	3682.52	26.9626	 
220.0	1.0	0.0	2.7661	10.08376	-10.67035	24.34573	176.13961	0.0685943	14.57847	66.60622	67.70738	24.92666	0.33604	 	1.2514099999999998E10	 	1.92338E-10	 	3547.989	26.9062	 
215.0	1.0	0.0	2.76718	10.07983	-10.70513	24.29355	175.98637	0.067958	14.71498	66.82575	67.8285	25.01343	0.3358	 	1.749E10	 	1.36223E-10	 	3413.742	26.8494	 
210.0	1.0	0.0	2.76825	10.07592	-10.73978	24.24141	175.82694	0.0673229	14.85379	67.04408	67.9488	25.09975	0.33555	 	2.4614299999999996E10	 	9.58034E-11	 	3279.779	26.7926	 
205.0	1.0	0.0	2.76932	10.07202	-10.77428	24.1893	175.66119	0.066689	14.99497	67.26121	68.0683	25.18563	0.33531	 	3.48891E10	 	6.689E-11	 	3146.101	26.7356	 
200.0	1.0	0.0	2.77039	10.06814	-10.80865	24.13722	175.48897	0.0660564	15.13857	67.47715	68.187	25.27105	0.33507	 	4.981879999999999E10	 	4.63546E-11	 	3012.708	26.6786	 
