T (C)	Fraction solid (wt)-TOTAL	Fraction liquid (wt)-LIQUID	Density (g/(cm)^3)-TOTAL	Molar volume (cm^3)-TOTAL	Volume change (%)-  	Average expansion coeff. (10e-6 1/K)-  	Thermal conductivity (W/(m*K))-TOTAL	Electrical resistivity (10e-6 Ohm*m)-TOTAL	Electrical conductivity (10e6 1/(Ohm*m))-TOTAL	Young's modulus (GPa)-TOTAL	Bulk modulus (GPa)-TOTAL	Shear modulus(GPa)-TOTAL	Poisson's ratio-TOTAL	Liquid viscosity (mPa s)-  	Total viscosity (mPa s)-  	Liquid diffusivity (10e-9 (m^2)/s)-  	Total diffusivity (10e-9 (m^2)/s)-  	Surface Tension (mN/m)-  	Enthalpy (J/mole)-TOTAL	Specific heat (J/(mole K))-TOTAL	Latent heat (J/mole)-TOTAL
700.0	0.0	1.0	2.45982	11.32824	0.0	66.60831	88.61271	0.26906	3.71664	0.0	51.39232	0.0	0.5	1.29081	1.29081	3.67963	3.67963	778.18745	28875.712	 	0.0
695.0	0.0	1.0	2.46151	11.32046	-0.0687013	66.71749	88.44153	0.2682	3.72861	0.0	51.46379	0.0	0.5	1.30489	1.30489	3.62123	3.62123	779.47244	28717.934	31.5556	0.0
692.46	0.0	1.0	2.46236	11.31652	-0.10347	66.77397	88.35468	0.26776	3.73474	0.0	51.50004	0.0	0.5	1.31215	1.31215	3.59176	3.59176	780.12332	28637.9	31.5547	0.0
690.0	1.2E-4	0.99988	2.46321	11.31263	-0.13782	66.82594	88.27261	0.26732	3.74081	7.12E-15	51.53508	2.37338E-15	0.49997	1.31915	1.31915	3.56358	3.56358	780.74953	28557.724	32.5437	2.44
685.0	3.6E-4	0.99964	2.46492	11.30476	-0.20735	66.93368	88.10589	0.26644	3.75323	5.46561E-13	51.60632	1.82198E-13	0.49991	1.3336	1.3336	3.50668	3.50668	782.02211	28395.192	32.5064	7.205
680.0	5.8E-4	0.99942	2.46663	11.29695	-0.27621	67.04688	87.93916	0.26555	3.76578	3.87305E-12	51.67781	1.29114E-12	0.49986	1.34837	1.34837	3.45016	3.45016	783.29271	28232.902	32.458	11.734
675.0	7.9E-4	0.99921	2.46833	11.28907	-0.34578	67.15777	87.7714	0.26466	3.77842	1.36076E-11	51.7489	4.53646E-12	0.4998	1.36347	1.36347	3.39404	3.39404	784.56149	28070.844	32.4116	16.036
670.0	9.9E-4	0.99901	2.47003	11.28139	-0.41363	67.28041	87.60454	0.26377	3.79123	3.39568E-11	51.82085	1.13208E-11	0.49976	1.37892	1.37892	3.33832	3.33832	785.82783	27909.01	32.3668	20.118
665.0	0.00119	0.99881	2.47172	11.27362	-0.48221	67.40071	87.43667	0.26287	3.80413	6.91801E-11	51.89237	2.30645E-11	0.49971	1.39473	1.39473	3.28299	3.28299	787.09207	27747.39	32.324	23.993
660.0	0.00137	0.99863	2.47341	11.26589	-0.55045	67.52487	87.26871	0.26197	3.81717	1.23111E-10	51.96402	4.10464E-11	0.49966	1.4109	1.4109	3.22807	3.22807	788.35382	27585.965	32.285	27.668
655.0	0.00154	0.99846	2.4751	11.25823	-0.61808	67.65466	87.10073	0.26107	3.83034	1.99191E-10	52.0359	6.6414E-11	0.49962	1.42744	1.42744	3.17356	3.17356	789.61298	27424.931	32.2068	31.151
650.0	0.0017	0.9983	2.47678	11.25062	-0.68526	67.78927	86.93269	0.26017	3.84366	2.99917E-10	52.10794	1.0E-10	0.49958	1.44437	1.44437	3.11946	3.11946	790.8694	27264.412	32.1038	34.45
645.0	0.00185	0.99815	2.47845	11.24303	-0.75221	67.92751	86.76452	0.25926	3.85711	4.27129E-10	52.18	1.4242E-10	0.49954	1.4617	1.4617	3.06578	3.06578	791.75049	27104.408	32.0008	37.573
640.0	0.0020	0.998	2.48013	11.23541	-0.81951	68.06579	86.59551	0.25835	3.87068	5.81866E-10	52.25184	1.94019E-10	0.49951	1.47945	1.47945	3.01252	3.01252	793.02301	26944.919	31.8978	40.527
638.48	0.00204	0.99796	2.48064	11.23313	-0.83959	68.11043	86.54448	0.25808	3.87484	6.34394E-10	52.27388	2.11536E-10	0.4995	1.48492	1.48492	2.99642	2.99642	793.40981	26896.578	 	41.392
638.48	0.00204	0.99796	2.48064	11.23313	-0.83959	68.11042	86.54449	0.25807	3.87484	6.34394E-10	52.27387	2.11536E-10	0.4995	1.48492	1.48842	2.99642	2.98937	793.40977	26896.576	 	41.393
635.0	0.0784602	0.92154	2.49421	11.17203	-1.37898	65.15413	90.36432	0.24622	4.06138	0.001211	52.54792	4.06256E-4	0.49044	1.50464	1.83956	2.94586	2.40952	792.12635	25956.96	197.592	872.294
632.5	0.14228	0.85772	2.50555	11.1214	-1.82588	62.6394	93.73912	0.2367	4.22469	0.0140195	52.79725	0.00472747	0.48277	1.52146	3.76082	2.90527	1.17534	790.79238	25185.466	 	1565.807
630.0	0.21665	0.78335	2.51893	11.06238	-2.34691	59.64031	97.80455	0.22624	4.42011	0.0754852	53.0356	0.0256179	0.47329	1.53901	12.86259	2.86422	0.3427	789.05086	24286.76	334.04	2386.648
625.0	0.35057	0.64943	2.54346	10.95564	-3.28918	54.19641	106.12329	0.20735	4.82276	0.54302	53.4963	0.18649	0.45591	1.57901	84.21516	2.7762	0.0520529	785.50564	22655.242	326.304	3862.665
620.0	0.45037	0.54963	2.56234	10.87483	-4.0025	50.1166	113.49317	0.19281	5.18656	1.55072	53.89826	0.53746	0.44264	1.62197	248.78081	2.68763	0.0175224	782.50677	21399.908	251.067	4962.843
615.0	0.52519	0.47481	2.57696	10.81302	-4.54815	47.04275	119.63284	0.18189	5.49791	2.98129	54.25421	1.04062	0.43246	1.66706	506.27884	2.60029	0.00856216	780.05263	20419.359	196.11	5788.579
612.82	0.5518	0.4482	2.5823	10.79063	-4.74579	45.94505	122.09266	0.17779	5.62474	3.68578	54.39807	1.28983	0.42878	1.68728	644.13772	2.56284	0.00671319	779.12273	20058.005	 	6082.652
612.82	0.5518	0.4482	2.5823	10.79063	-4.7458	45.94503	122.09265	0.17779	5.62475	3.68579	54.39808	1.28983	0.42878	1.68728	644.14404	2.56283	0.00671312	779.12287	20057.991	 	6082.652
610.0	0.5844	0.4156	2.58886	10.76321	-4.98784	44.60155	125.26807	0.17273	5.78948	4.71896	54.58345	1.65665	0.42425	1.71388	857.43496	2.51502	0.00502713	777.94621	19602.671	163.338	6450.8
605.0	0.63173	0.36827	2.59864	10.72251	-5.34712	42.64272	130.21816	0.16522	6.05253	6.61769	54.89046	2.33418	0.41756	1.76269	1296.46365	2.43153	0.00330594	776.21419	18914.345	137.665	6985.001
600.0	0.66887	0.33113	2.60661	10.6895	-5.63849	41.09659	134.40986	0.15916	6.28313	8.5037	55.17682	3.01075	0.41222	1.81364	1807.7926	2.34976	0.00235737	774.8331	18341.739	114.521	7403.822
595.0	0.69872	0.30128	2.61327	10.66199	-5.88131	39.84553	137.98527	0.15414	6.48742	10.3196	55.4476	3.66503	0.40784	1.86667	2392.35243	2.26994	0.00177115	773.73231	17851.801	97.9876	7740.314
590.46	0.72112	0.27888	2.61847	10.64062	-6.07003	38.90303	140.79534	0.15028	6.65434	11.88445	55.68313	4.23084	0.4045	1.91659	2990.84723	2.19925	0.00140932	772.92939	17460.214	 	7992.835
590.46	0.72112	0.27888	2.61847	10.64062	-6.07003	38.90302	140.79636	0.15028	6.65439	11.88495	55.68321	4.23102	0.4045	1.9166	2991.05232	2.19924	0.00140922	772.92925	17460.16	 	7992.869
590.0	0.7233	0.2767	2.61899	10.63849	-6.08878	38.80906	141.06521	0.14991	6.67064	12.04608	55.70562	4.28942	0.40416	1.92158	3057.03378	2.19237	0.00137807	772.85628	17421.708	86.0186	8017.302
588.07	0.73209	0.26791	2.62109	10.62986	-6.16502	38.42965	142.16286	0.14842	6.73758	12.7181	55.79934	4.53317	0.40278	1.9427	3343.98506	2.1637	0.00125701	772.56844	17263.852	 	8116.255
585.0	0.74503	0.25497	2.62424	10.61694	-6.27904	37.87032	143.80159	0.14621	6.83966	13.76389	55.94662	4.9131	0.40073	1.97697	3832.81501	2.11861	0.00109278	772.1668	17024.278	79.486	8261.962
580.0	0.76355	0.23645	2.6289	10.59784	-6.44764	37.06231	146.19958	0.14297	6.99447	15.39093	56.18079	5.50563	0.39775	2.0343	4715.88345	2.0469	8.82976E-4	771.65025	16662.689	72.3178	8471.118
575.0	0.7794	0.2206	2.63307	10.5808	-6.59806	36.36461	148.30647	0.14011	7.13709	16.91806	56.40928	6.06326	0.39513	2.09363	5718.45237	1.97724	7.23904E-4	771.27743	16330.859	66.366	8650.848
570.0	0.79308	0.20692	2.63683	10.56543	-6.73372	35.7566	150.16778	0.13756	7.26952	18.34766	56.63296	6.58652	0.39282	2.15502	6857.47392	1.90959	6.00105E-4	771.02853	16023.363	61.4992	8806.576
565.0	0.80498	0.19502	2.64025	10.55143	-6.85728	35.22208	151.81729	0.13526	7.39322	19.68254	56.85226	7.07618	0.39076	2.21852	8152.2537	1.84393	5.018E-4	770.88698	15735.97	57.4786	8942.53
560.0	0.8154	0.1846	2.6434	10.53859	-6.97068	34.74945	153.28756	0.13316	7.50961	20.92968	57.06775	7.53454	0.38892	2.2842	9626.82236	1.78023	4.22403E-4	770.83861	15465.341	54.1258	9062.048
555.0	0.82458	0.17542	2.64632	10.52668	-7.07581	34.32688	154.60571	0.13123	7.61992	22.09723	57.27969	7.96442	0.38725	2.35211	11309.87271	1.71845	3.57386E-4	770.8718	15208.819	51.3044	9167.784
551.03	0.83112	0.16888	2.64849	10.51781	-7.15409	34.02327	155.55638	0.12981	7.70375	22.97043	57.44576	8.28641	0.38603	2.40768	12816.61985	1.67074	3.13858E-4	770.94889	15013.584	 	9243.396
551.03	0.83111	0.16889	2.64849	10.51781	-7.15411	34.02313	155.5564	0.12981	7.70374	22.97044	57.44574	8.28642	0.38603	2.40767	12816.49215	1.67074	3.13861E-4	770.94894	15013.619	 	9243.374
550.0	0.83303	0.16697	2.64908	10.51544	-7.17501	33.93903	155.82519	0.12942	7.72667	23.22244	57.48872	8.37943	0.38568	2.42174	13249.87494	1.65897	3.03217E-4	770.9431	14960.6	49.6438	9265.54
545.0	0.84148	0.15852	2.65178	10.50445	-7.27205	33.55941	157.02766	0.12765	7.83388	24.37929	57.69602	8.80684	0.38411	2.49215	15529.64279	1.60231	2.57133E-4	770.98355	14712.369	49.6462	9363.627
540.0	0.84872	0.15128	2.65428	10.49431	-7.36156	33.22772	158.08154	0.12602	7.93495	25.43025	57.90017	9.19571	0.38272	2.5654	18123.13899	1.54704	2.1899E-4	771.11496	14478.282	46.8174	9447.888
536.83	0.8528	0.1472	2.65576	10.48823	-7.41518	33.03705	158.68632	0.12506	7.99647	26.05002	58.02787	9.42531	0.38192	2.61323	19953.73263	1.51281	1.98124E-4	771.23691	14335.894	 	9495.506
535.0	0.85725	0.14275	2.65685	10.48372	-7.45499	32.86043	159.30264	0.12429	8.04572	26.71834	58.12666	9.67283	0.3811	2.65069	21309.23789	1.48806	1.85102E-4	771.43872	14220.051	51.6462	9556.607
530.0	0.86772	0.13228	2.65956	10.47248	-7.55429	32.44199	160.75756	0.1224	8.16975	28.36657	58.38444	10.28415	0.37914	2.75522	25315.07104	1.42274	1.54848E-4	772.05575	13926.726	58.665	9700.731
525.0	0.87629	0.12371	2.66197	10.4624	-7.64321	32.0936	161.95897	0.12074	8.28237	29.8055	58.62737	10.8189	0.37747	2.863	29846.93823	1.36066	1.30518E-4	772.73915	13659.614	53.4224	9818.95
520.0	0.88348	0.11652	2.66417	10.45322	-7.72431	31.79801	162.97043	0.11924	8.38663	31.08331	58.8591	11.29459	0.37603	2.9742	35014.71681	1.30158	1.10558E-4	773.46877	13411.755	49.5718	9918.223
515.0	0.8896	0.1104	2.66622	10.44468	-7.79965	31.54083	163.83243	0.11786	8.48447	32.23269	59.08171	11.72317	0.37474	3.089	40939.13003	1.24531	9.3963E-5	774.23152	13178.588	46.6334	10003.104
510.0	0.89493	0.10507	2.66814	10.43667	-7.87039	31.31421	164.57512	0.11659	8.57735	33.27939	59.29674	12.11405	0.37359	3.20742	47762.75142	1.19172	8.00281E-5	775.01739	12956.971	44.3234	10076.734
508.13	0.89673	0.10327	2.66882	10.43379	-7.89579	31.23621	164.82678	0.11613	8.61097	33.64627	59.37517	12.25119	0.37318	3.25257	50569.01175	1.17238	7.5407E-5	775.31468	12876.861	 	10101.717
505.0	0.93575	0.0642467	2.67442	10.4111	-8.09605	29.862	167.97354	0.1135	8.81072	39.96922	59.45198	14.63348	0.36568	3.2918	63371.29052	1.15376	5.99318E-5	769.05413	12326.39	126.116	10559.625
502.13	0.9495	0.0505015	2.67686	10.40129	-8.18271	29.35436	169.10382	0.11232	8.90282	42.4879	59.53744	15.58722	0.36291	3.32662	71845.25537	1.13748	5.26682E-5	766.11485	12081.325	 	10720.107
500.0	1.0	0.0	2.68439	10.37062	-8.45341	27.33027	173.39162	0.10925	9.15373	52.02061	59.60659	19.20225	0.35454	 	90546.06081	 	4.16755E-5	 	11466.886	171.901	11271.727
495.0	1.0	0.0	2.68564	10.36577	-8.49623	27.27639	173.41933	0.10852	9.21479	52.30316	59.78534	19.31158	0.35419	 	103705.5442	 	3.61519E-5	 	11287.29	35.9192	 
490.0	1.0	0.0	2.6869	10.36094	-8.5389	27.22255	173.44419	0.1078	9.27649	52.58453	59.96261	19.4205	0.35384	 	118988.9452	 	3.13033E-5	 	11136.623	30.1334	 
485.0	1.0	0.0	2.68815	10.35612	-8.58142	27.16874	173.4662	0.10708	9.33886	52.8647	60.13843	19.52901	0.35349	 	136772.4915	 	2.70547E-5	 	10986.354	30.0538	 
480.0	1.0	0.0	2.68939	10.35132	-8.6238	27.11496	173.48531	0.10636	9.40189	53.14368	60.3128	19.63711	0.35314	 	157504.9078	 	2.33386E-5	 	10836.476	29.9756	 
475.0	1.0	0.0	2.69064	10.34654	-8.66603	27.06121	173.50151	0.10565	9.46561	53.42178	60.48612	19.74491	0.3528	 	181722.5052	 	2.0094E-5	 	10686.98	29.8992	 
470.0	1.0	0.0	2.69188	10.34177	-8.70812	27.00749	173.51476	0.10493	9.53002	53.69838	60.65767	19.85218	0.35246	 	210067.6459	 	1.72665E-5	 	10537.859	29.8242	 
465.0	1.0	0.0	2.69311	10.33702	-8.75006	26.95381	173.52504	0.10422	9.59514	53.97378	60.82782	19.95904	0.35211	 	243311.3878	 	1.48071E-5	 	10389.105	29.7508	 
460.0	1.0	0.0	2.69435	10.33228	-8.79185	26.90015	173.53233	0.10351	9.66099	54.24799	60.99661	20.06549	0.35177	 	282381.3207	 	1.2672E-5	 	10240.71	29.679	 
455.0	1.0	0.0	2.69558	10.32756	-8.8335	26.84653	173.53659	0.1028	9.72756	54.52101	61.16404	20.17152	0.35144	 	328395.868	 	1.08221E-5	 	10092.666	29.6088	 
450.0	1.0	0.0	2.69681	10.32286	-8.87501	26.79294	173.5378	0.10209	9.79489	54.79283	61.33013	20.27714	0.3511	 	382706.6565	 	9.22251E-6	 	9944.965	29.5402	 
445.0	1.0	0.0	2.69803	10.31818	-8.91636	26.73938	173.53592	0.10139	9.86298	55.06347	61.49489	20.38234	0.35076	 	446950.9836	 	7.84227E-6	 	9797.6	29.473	 
440.0	1.0	0.0	2.69925	10.31351	-8.95758	26.68586	173.53093	0.10069	9.93184	55.33292	61.65834	20.48713	0.35043	 	523116.9542	 	6.65379E-6	 	9650.563	29.4074	 
435.0	1.0	0.0	2.70047	10.30886	-8.99865	26.63236	173.52279	0.099985	10.0015	55.60118	61.8205	20.5915	0.3501	 	613624.5522	 	5.6326E-6	 	9503.845	29.3436	 
430.0	1.0	0.0	2.70169	10.30422	-9.03957	26.5789	173.51147	0.0992855	10.07196	55.86824	61.98137	20.69545	0.34977	 	721426.8164	 	4.7571E-6	 	9357.44	29.281	 
425.0	1.0	0.0	2.7029	10.2996	-9.08035	26.52547	173.49694	0.0985878	10.14325	56.13412	62.14098	20.79898	0.34944	 	850136.4404	 	4.00818E-6	 	9211.341	29.2198	 
420.0	1.0	0.0	2.70411	10.295	-9.12099	26.47207	173.47917	0.0978917	10.21537	56.39881	62.29934	20.90209	0.34912	 	1004184.625	 	3.36899E-6	 	9065.537	29.1608	 
415.0	1.0	0.0	2.70531	10.29041	-9.16148	26.4187	173.45811	0.0971974	10.28834	56.66231	62.45646	21.00479	0.3488	 	1189020.955	 	2.82475E-6	 	8920.026	29.1022	 
410.0	1.0	0.0	2.70651	10.28584	-9.20182	26.36536	173.43374	0.0965047	10.36219	56.92463	62.61236	21.10706	0.34847	 	1411365.612	 	2.36245E-6	 	8774.808	29.0436	 
405.0	1.0	0.0	2.70771	10.28129	-9.24203	26.31206	173.40602	0.0958137	10.43692	57.18575	62.76705	21.20892	0.34815	 	1679528.567	 	1.97072E-6	 	8629.882	28.9852	 
400.0	1.0	0.0	2.70891	10.27675	-9.28208	26.25879	173.3749	0.0951244	10.51256	57.44569	62.92054	21.31035	0.34784	 	2003814.717	 	1.63961E-6	 	8485.247	28.927	 
395.0	1.0	0.0	2.7101	10.27223	-9.322	26.20555	173.34036	0.0944366	10.58911	57.70443	63.07285	21.41136	0.34752	 	2397039.706	 	1.36046E-6	 	8340.901	28.8692	 
390.0	1.0	0.0	2.71129	10.26772	-9.36177	26.15234	173.30235	0.0937505	10.66661	57.962	63.22399	21.51195	0.3472	 	2875188.675	 	1.12572E-6	 	8196.846	28.811	 
385.0	1.0	0.0	2.71248	10.26323	-9.4014	26.09916	173.26083	0.0930659	10.74507	58.21837	63.37397	21.61212	0.34689	 	3458260.224	 	9.28868E-7	 	8053.079	28.7534	 
380.0	1.0	0.0	2.71366	10.25876	-9.44088	26.04601	173.21575	0.0923829	10.82451	58.47356	63.52281	21.71186	0.34658	 	4171351.168	 	7.64228E-7	 	7909.6	28.6958	 
375.0	1.0	0.0	2.71484	10.2543	-9.48022	25.9929	173.16709	0.0917015	10.90495	58.72756	63.67052	21.81118	0.34627	 	5046055.379	 	6.26917E-7	 	7766.409	28.6382	 
370.0	1.0	0.0	2.71601	10.24986	-9.51942	25.93982	173.11479	0.0910215	10.98641	58.98037	63.8171	21.91007	0.34597	 	6122273.772	 	5.12727E-7	 	7623.504	28.581	 
365.0	1.0	0.0	2.71719	10.24544	-9.55847	25.88677	173.0588	0.0903431	11.06891	59.232	63.96258	22.00854	0.34566	 	7450564.342	 	4.18042E-7	 	7480.886	28.5236	 
360.0	1.0	0.0	2.71836	10.24103	-9.59738	25.83375	172.99908	0.0896662	11.15247	59.48245	64.10697	22.10658	0.34536	 	9095204.171	 	3.39767E-7	 	7338.553	28.4666	 
355.0	1.0	0.0	2.71952	10.23664	-9.63615	25.78076	172.93558	0.0889908	11.23712	59.73171	64.25027	22.20419	0.34505	 	1.113819349E7	 	2.75255E-7	 	7196.505	28.4096	 
350.0	1.0	0.0	2.72068	10.23226	-9.67477	25.7278	172.86825	0.0883168	11.32287	59.97978	64.3925	22.30138	0.34475	 	1.368451092E7	 	2.22254E-7	 	7054.742	28.3526	 
345.0	1.0	0.0	2.72184	10.2279	-9.71325	25.67488	172.79705	0.0876443	11.40976	60.22667	64.53367	22.39814	0.34446	 	1.686903691E7	 	1.78851E-7	 	6913.263	28.2958	 
340.0	1.0	0.0	2.723	10.22356	-9.75159	25.62199	172.7219	0.0869732	11.4978	60.47237	64.67379	22.49447	0.34416	 	2.08657101E7	 	1.43423E-7	 	6772.067	28.2392	 
335.0	1.0	0.0	2.72415	10.21923	-9.78979	25.56913	172.64278	0.0863035	11.58702	60.71689	64.81287	22.59038	0.34387	 	2.589968443E7	 	1.14605E-7	 	6631.154	28.1826	 
330.0	1.0	0.0	2.7253	10.21492	-9.82784	25.5163	172.5596	0.0856352	11.67744	60.96022	64.95093	22.68585	0.34357	 	3.226353584E7	 	9.12431E-8	 	6490.523	28.1262	 
325.0	1.0	0.0	2.72645	10.21063	-9.86576	25.4635	172.47232	0.0849683	11.7691	61.20238	65.08797	22.7809	0.34328	 	4.033895651E7	 	7.23723E-8	 	6350.175	28.0696	 
320.0	1.0	0.0	2.72759	10.20635	-9.90353	25.41073	172.38088	0.0843027	11.86202	61.44334	65.22401	22.87551	0.34299	 	5.062591773E7	 	5.71845E-8	 	6210.108	28.0134	 
315.0	1.0	0.0	2.72873	10.20209	-9.94116	25.358	172.28522	0.0836385	11.95622	61.68313	65.35905	22.96969	0.34271	 	6.378204239E7	 	4.50066E-8	 	6070.322	27.9572	 
310.0	1.0	0.0	2.72987	10.19784	-9.97864	25.3053	172.18527	0.0829756	12.05174	61.92173	65.4931	23.06344	0.34242	 	8.067599704E7	 	3.52795E-8	 	5930.818	27.9008	 
305.0	1.0	0.0	2.731	10.19361	-10.01599	25.25263	172.08096	0.082314	12.1486	62.15914	65.62618	23.15676	0.34214	 	1.024602245E8	 	2.75405E-8	 	5791.594	27.8448	 
300.0	1.0	0.0	2.73213	10.18939	-10.05319	25.19999	171.97222	0.0816537	12.24684	62.39538	65.7583	23.24964	0.34186	 	1.306704842E8	 	2.14081E-8	 	5652.65	27.7888	 
295.0	1.0	0.0	2.73326	10.1852	-10.09025	25.14738	171.859	0.0809947	12.34648	62.63043	65.88946	23.34209	0.34158	 	1.673627304E8	 	1.65688E-8	 	5513.986	27.7328	 
290.0	1.0	0.0	2.73438	10.18101	-10.12717	25.09481	171.7412	0.080337	12.44756	62.8643	66.01968	23.43411	0.3413	 	2.153022541E8	 	1.27662E-8	 	5375.602	27.6768	 
285.0	1.0	0.0	2.7355	10.17685	-10.16395	25.04226	171.61877	0.0796805	12.55012	63.09699	66.14896	23.52569	0.34102	 	2.782263545E8	 	9.79128E-9	 	5237.498	27.6208	 
280.0	1.0	0.0	2.73662	10.1727	-10.20059	24.98975	171.49161	0.0790253	12.65418	63.3285	66.27732	23.61684	0.34075	 	3.612109977E8	 	7.47427E-9	 	5099.673	27.565	 
275.0	1.0	0.0	2.73773	10.16856	-10.23709	24.93727	171.35965	0.0783713	12.75978	63.55882	66.40477	23.70755	0.34048	 	4.711853298E8	 	5.67799E-9	 	4962.128	27.509	 
270.0	1.0	0.0	2.73884	10.16444	-10.27345	24.88482	171.2228	0.0777185	12.86695	63.78796	66.5313	23.79783	0.34021	 	6.176575669E8	 	4.29199E-9	 	4824.862	27.4532	 
265.0	1.0	0.0	2.73994	10.16034	-10.30966	24.83241	171.08098	0.0770669	12.97574	64.01592	66.65694	23.88766	0.33994	 	8.137447864E8	 	3.22776E-9	 	4687.876	27.3972	 
260.0	1.0	0.0	2.74105	10.15625	-10.34574	24.78002	170.93409	0.0764164	13.08619	64.2427	66.78169	23.97707	0.33967	 	1.077642169E9	 	2.41469E-9	 	4551.169	27.3414	 
255.0	1.0	0.0	2.74215	10.15218	-10.38167	24.72767	170.78205	0.0757672	13.19833	64.4683	66.90556	24.06603	0.3394	 	1.434731479E9	 	1.79669E-9	 	4414.742	27.2854	 
250.0	1.0	0.0	2.74324	10.14813	-10.41747	24.67534	170.62475	0.0751191	13.3122	64.69272	67.02856	24.15455	0.33914	 	1.920625069E9	 	1.32944E-9	 	4278.595	27.2294	 
245.0	1.0	0.0	2.74433	10.14409	-10.45312	24.62305	170.46209	0.0744721	13.42784	64.91596	67.1507	24.24264	0.33888	 	2.585587597E9	 	9.78099E-10	 	4142.727	27.1736	 
240.0	1.0	0.0	2.74542	10.14007	-10.48864	24.57079	170.29397	0.0738263	13.54531	65.13802	67.27199	24.33028	0.33862	 	3.500999727E9	 	7.15384E-10	 	4007.14	27.1174	 
235.0	1.0	0.0	2.74651	10.13606	-10.52401	24.51857	170.12028	0.0731816	13.66464	65.3589	67.39243	24.41749	0.33836	 	4.768868315E9	 	5.20072E-10	 	3871.833	27.0614	 
230.0	1.0	0.0	2.74759	10.13207	-10.55925	24.46637	169.94091	0.072538	13.78588	65.5786	67.51203	24.50426	0.33811	 	6.535912696E9	 	3.75732E-10	 	3736.807	27.0052	 
225.0	1.0	0.0	2.74867	10.12809	-10.59435	24.41421	169.75574	0.0718955	13.90907	65.79712	67.63081	24.59058	0.33785	 	9.014572595E9	 	2.69713E-10	 	3602.062	26.949	 
220.0	1.0	0.0	2.74974	10.12413	-10.6293	24.36208	169.56464	0.0712541	14.03428	66.01446	67.74876	24.67646	0.3376	 	1.2514599999999998E10	 	1.92331E-10	 	3467.6	26.8924	 
215.0	1.0	0.0	2.75081	10.12019	-10.66412	24.30998	169.3675	0.0706138	14.16155	66.23062	67.86591	24.7619	0.33735	 	1.74906E10	 	1.36218E-10	 	3333.419	26.8362	 
