T (C)	Fraction solid (wt)-TOTAL	Fraction liquid (wt)-LIQUID	Density (g/(cm)^3)-TOTAL	Molar volume (cm^3)-TOTAL	Volume change (%)-  	Average expansion coeff. (10e-6 1/K)-  	Thermal conductivity (W/(m*K))-TOTAL	Electrical resistivity (10e-6 Ohm*m)-TOTAL	Electrical conductivity (10e6 1/(Ohm*m))-TOTAL	Young's modulus (GPa)-TOTAL	Bulk modulus (GPa)-TOTAL	Shear modulus(GPa)-TOTAL	Poisson's ratio-TOTAL	Liquid viscosity (mPa s)-  	Total viscosity (mPa s)-  	Liquid diffusivity (10e-9 (m^2)/s)-  	Total diffusivity (10e-9 (m^2)/s)-  	Surface Tension (mN/m)-  	Enthalpy (J/mole)-TOTAL	Specific heat (J/(mole K))-TOTAL	Latent heat (J/mole)-TOTAL
700.0	2.6E-4	0.99974	2.38297	11.35151	0.0	66.4301	89.98799	0.26495	3.77432	3.37606E-13	50.28021	1.1254E-13	0.49994	1.21796	1.21796	3.89974	3.89974	693.50297	29972.401	 	0.0
695.0	3.3E-4	0.99967	2.38458	11.3438	-0.0679214	66.54247	89.82225	0.26407	3.78682	8.52342E-13	50.35008	2.84128E-13	0.49992	1.23096	1.23096	3.8387	3.8387	696.65129	29806.254	33.2294	7.537
690.0	3.9E-4	0.99961	2.38619	11.33615	-0.13532	66.65953	89.65677	0.26319	3.79947	1.74438E-12	50.4198	5.81496E-13	0.49991	1.24425	1.24425	3.77811	3.77811	699.78299	29640.507	33.1494	14.676
685.0	4.5E-4	0.99955	2.3878	11.32856	-0.20218	66.78138	89.49154	0.26231	3.81226	3.10877E-12	50.48936	1.03633E-12	0.4999	1.25781	1.25781	3.71795	3.71795	702.89766	29475.146	33.0722	21.433
680.0	5.1E-4	0.99949	2.38941	11.32091	-0.26955	66.9022	89.32566	0.26143	3.82515	5.02307E-12	50.55825	1.67449E-12	0.49989	1.27167	1.27167	3.65824	3.65824	705.99665	29310.152	32.9988	27.823
675.0	5.7E-4	0.99943	2.39101	11.31332	-0.33643	67.02772	89.16001	0.26054	3.83819	7.54504E-12	50.62699	2.51522E-12	0.49987	1.28584	1.28584	3.59897	3.59897	709.07788	29145.509	32.9286	33.863
670.0	6.2E-4	0.99938	2.39262	11.30567	-0.40382	67.1522	88.99368	0.25965	3.85134	1.07094E-11	50.69508	3.57012E-12	0.49986	1.30031	1.30031	3.54015	3.54015	712.14261	28981.203	32.8612	39.57
665.0	6.6E-4	0.99934	2.39422	11.29819	-0.46975	67.28723	88.82845	0.25875	3.86468	1.45346E-11	50.76355	4.84536E-12	0.49985	1.3151	1.3151	3.48177	3.48177	715.18715	28817.217	32.7972	44.957
660.0	7.1E-4	0.99929	2.39582	11.29064	-0.53623	67.42119	88.66252	0.25786	3.87813	1.90149E-11	50.83138	6.33898E-12	0.49984	1.33022	1.33022	3.42385	3.42385	718.21436	28653.527	32.738	50.04
655.0	7.5E-4	0.99925	2.39742	11.28303	-0.60325	67.55392	88.49589	0.25696	3.8917	2.41359E-11	50.89858	8.04623E-12	0.49983	1.34568	1.34568	3.36638	3.36638	721.22393	28490.33	32.6394	54.833
650.21	7.9E-4	0.99921	2.39896	11.27581	-0.6669	67.68655	88.33659	0.25609	3.90484	2.96008E-11	50.96289	9.86812E-12	0.49982	1.36082	1.36321	3.31174	3.30593	724.08847	28334.548	32.5204	59.171
650.0	0.02548	0.97452	2.40288	11.2574	-0.82905	66.72811	89.65731	0.25226	3.96412	1.11942E-5	50.99501	3.73883E-6	0.49701	1.36216	1.41147	3.30774	3.19218	723.83975	28063.354	1293.19	323.742
645.0	0.41161	0.58839	2.46641	10.96743	-3.3835	51.68519	114.6475	0.19621	5.09665	0.95966	51.97573	0.33053	0.45168	1.39639	100.01556	3.20919	0.0448057	719.77423	23778.397	856.991	4450.975
640.0	0.58648	0.41352	2.49693	10.8333	-4.56513	44.83933	131.74923	0.16981	5.88898	4.18903	52.54657	1.46458	0.43011	1.43279	445.37052	3.11062	0.0100071	717.80699	21758.096	404.06	6313.896
635.0	0.6847	0.3153	2.51491	10.75573	-5.24844	40.97066	144.00727	0.1545	6.47233	8.06018	52.96113	2.84296	0.41757	1.4711	908.65774	3.01302	0.00487802	716.88884	20557.575	240.104	7357.384
633.2	0.70984	0.29016	2.51968	10.73532	-5.42829	39.97334	147.49782	0.15055	6.64235	9.40131	53.08889	3.32369	0.41429	1.48525	1086.50286	2.97841	0.00407149	716.71111	20234.216	 	7624.423
630.0	0.75844	0.24156	2.5289	10.69612	-5.7736	38.0266	154.40962	0.1433	6.97828	12.45748	53.30215	4.42475	0.4077	1.50402	1503.25869	2.93085	0.00293233	716.21656	19608.959	189.723	8149.313
625.0	0.81076	0.18924	2.53929	10.65231	-6.15952	35.91104	162.44493	0.13546	7.38229	16.61414	53.59496	5.93181	0.40043	1.53419	2161.38601	2.85731	0.00202816	716.04364	18887.667	144.258	8714.263
620.0	0.84587	0.15413	2.54671	10.62118	-6.43379	34.46963	168.21618	0.13008	7.68736	20.01993	53.85824	7.1737	0.39537	1.56537	2826.23771	2.7848	0.00154242	716.34946	18351.627	107.208	9094.307
615.0	0.87091	0.12909	2.55239	10.59749	-6.64245	33.42429	172.54607	0.12611	7.92963	22.81895	54.10371	8.19866	0.39163	1.59755	3511.31661	2.71344	0.00123453	716.98654	17923.699	85.5856	9366.583
614.64	0.87243	0.12757	2.55275	10.59599	-6.65566	33.36007	172.81687	0.12586	7.94531	23.00076	54.12099	8.26537	0.39139	1.59991	3561.92946	2.70832	0.0012165	717.04034	17895.846	 	9383.189
614.64	0.87243	0.12757	2.55275	10.59599	-6.65566	33.36007	172.81687	0.12586	7.94531	23.00076	54.12099	8.26537	0.39139	1.59991	3561.92946	2.70832	0.0012165	717.04034	17895.846	 	9383.189
610.0	0.89241	0.10759	2.55748	10.5764	-6.82828	32.50868	176.33127	0.12271	8.14946	25.4936	54.33481	9.18186	0.38826	1.62712	4284.43735	2.64912	0.00100607	717.6557	17529.372	78.8654	9605.601
606.09	0.90522	0.0947809	2.56075	10.56285	-6.94764	31.95081	178.67477	0.12056	8.29453	27.23907	54.50981	9.82529	0.38617	1.65119	4916.0249	2.59894	8.72927E-4	718.35027	17264.704	 	9748.932
605.0	0.90828	0.0917172	2.56158	10.55944	-6.97762	31.81517	179.24836	0.12003	8.33145	27.67697	54.55762	9.98694	0.38566	1.65801	5096.34951	2.58505	8.41E-4	718.56278	17196.556	66.5632	9783.454
600.0	0.92042	0.0795829	2.56502	10.54527	-7.10252	31.27033	181.56994	0.11782	8.48768	29.49409	54.77433	10.65869	0.38357	1.69036	5965.89121	2.52113	7.14332E-4	719.66004	16904.814	58.3484	9920.573
595.0	0.92997	0.070034	2.568	10.533	-7.21055	30.82795	183.47489	0.11593	8.62613	31.0363	54.98644	11.23006	0.38184	1.72422	6911.40356	2.45747	6.13077E-4	720.89179	16641.628	52.6372	10029.478
590.0	0.93768	0.0623221	2.57066	10.52211	-7.30655	30.45815	185.07859	0.11426	8.75193	32.37064	55.19475	11.72539	0.38037	1.75959	7951.62895	2.39421	5.29806E-4	722.22483	16398.823	48.561	10118.342
585.0	0.94404	0.0559645	2.57307	10.51222	-7.39365	30.14191	186.45788	0.11276	8.86853	33.5446	55.39977	12.16196	0.37908	1.79647	9105.8237	2.33148	4.59971E-4	723.63427	16171.121	45.5404	10192.441
583.29	0.94595	0.0540489	2.57385	10.50903	-7.42171	30.04395	186.88635	0.11228	8.9066	33.91398	55.46902	12.29948	0.37868	1.8094	9528.92303	2.31022	4.38674E-4	724.12774	16096.288	 	10214.969
578.31	0.95133	0.0486703	2.5761	10.49987	-7.50245	29.76247	188.09193	0.11091	9.01649	34.97766	55.6684	12.69594	0.37751	1.84692	10878.71619	2.25011	3.82011E-4	725.55747	15879.955	 	10278.758
577.07	0.95253	0.0474696	2.57663	10.49768	-7.52172	29.69785	188.36994	0.11058	9.04308	35.2251	55.71808	12.78826	0.37724	1.85663	11241.47918	2.23507	3.69141E-4	725.92411	15827.367	 	10293.131
577.07	0.95253	0.0474696	2.57663	10.49768	-7.52172	29.69785	188.36994	0.11058	9.04308	35.2251	55.71808	12.78826	0.37724	1.85663	11241.47918	2.23507	3.69141E-4	725.92411	15827.367	 	10293.131
575.0	0.95757	0.0424328	2.5779	10.49244	-7.56787	29.49202	189.35823	0.10974	9.11267	36.16096	55.82604	13.13684	0.37632	1.87749	12023.45056	2.20486	3.44295E-4	726.53024	15697.398	47.3723	10359.966
570.0	0.96629	0.0337052	2.58043	10.48195	-7.66028	29.12138	191.15404	0.10807	9.25364	37.89567	56.06489	13.7842	0.37461	1.9281	13954.53635	2.13433	2.94901E-4	728.15967	15427.392	54.0012	10477.373
565.0	0.9721	0.0278974	2.58252	10.47333	-7.73625	28.85898	192.44178	0.10671	9.37155	39.16734	56.2846	14.25993	0.37334	1.97922	16018.99604	2.06688	2.55372E-4	729.89329	15195.721	46.3342	10556.777
560.5	0.97592	0.0240778	2.58417	10.46646	-7.79674	28.67442	193.35345	0.10563	9.46679	40.08164	56.47262	14.60269	0.37241	2.02591	18052.25927	2.00839	2.25392E-4	731.4978	15005.795	 	10609.894
555.0	0.98132	0.0186786	2.58632	10.4576	-7.87477	28.41514	194.55398	0.10429	9.58882	41.35392	56.67578	15.08089	0.37107	2.07834	20979.13643	1.94482	1.92667E-4	733.23528	14763.54	43.2181	10685.407
552.03	0.98321	0.0167875	2.58731	10.45348	-7.9111	28.31484	195.03432	0.10366	9.64715	41.86115	56.78746	15.27188	0.37053	2.1088	22677.11139	1.90984	1.77601E-4	734.2522	14646.181	 	10712.711
550.0	0.99195	0.00804964	2.5884	10.44841	-7.9558	28.10206	196.57756	0.10259	9.7474	43.64662	56.91851	15.94151	0.36896	2.14673	24646.01128	1.8715	1.63012E-4	733.66515	14460.688	60.5704	10836.971
545.0	1.0	0.0	2.58986	10.44078	-8.02299	27.8836	198.15753	0.10116	9.88579	45.51009	57.14759	16.64265	0.36727	 	28684.13778	 	1.39212E-4	 	14192.711	53.5954	10953.981
540.0	1.0	0.0	2.5911	10.43575	-8.06733	27.82875	198.40877	0.10041	9.95919	45.78741	57.3274	16.74884	0.36688	 	32377.52636	 	1.22578E-4	 	13942.701	50.002	 
535.0	1.0	0.0	2.59235	10.43073	-8.11151	27.77394	198.65791	0.0996672	10.03339	46.06362	57.50563	16.85466	0.3665	 	36601.29265	 	1.07766E-4	 	13787.763	30.9876	 
530.0	1.0	0.0	2.59359	10.42573	-8.15555	27.71916	198.90493	0.0989275	10.10841	46.33869	57.68225	16.96009	0.36611	 	41439.28282	 	9.45956E-5	 	13633.305	30.8916	 
525.0	1.0	0.0	2.59483	10.42075	-8.19944	27.6644	199.1498	0.0981908	10.18426	46.61263	57.85731	17.06516	0.36573	 	46989.79465	 	8.29025E-5	 	13479.318	30.7974	 
520.0	1.0	0.0	2.59607	10.41578	-8.24318	27.60969	199.39249	0.0974569	10.26095	46.88545	58.03082	17.16984	0.36534	 	53368.27291	 	7.25369E-5	 	13325.794	30.7048	 
515.0	1.0	0.0	2.5973	10.41084	-8.28677	27.555	199.63297	0.0967259	10.33849	47.15714	58.2028	17.27414	0.36496	 	60710.54537	 	6.33624E-5	 	13172.725	30.6138	 
510.0	1.0	0.0	2.59853	10.40591	-8.33021	27.50035	199.87121	0.0959977	10.41692	47.42771	58.37328	17.37807	0.36458	 	69176.71553	 	5.5255E-5	 	13020.103	30.5244	 
505.0	1.0	0.0	2.59976	10.40099	-8.3735	27.44573	200.1072	0.0952723	10.49623	47.69716	58.54228	17.48162	0.36421	 	78955.85473	 	4.81023E-5	 	12867.92	30.4366	 
500.0	1.0	0.0	2.60099	10.39609	-8.41664	27.39114	200.34088	0.0945497	10.57645	47.96548	58.70982	17.58479	0.36383	 	90271.66932	 	4.18022E-5	 	12716.166	30.3508	 
495.0	1.0	0.0	2.60221	10.39121	-8.45964	27.33658	200.57225	0.0938299	10.65758	48.23268	58.87592	17.68757	0.36346	 	103389.3594	 	3.62624E-5	 	12564.836	30.266	 
490.0	1.0	0.0	2.60343	10.38635	-8.50249	27.28205	200.80125	0.0931128	10.73966	48.49876	59.04059	17.78998	0.36309	 	118623.9376	 	3.13996E-5	 	12413.919	30.1834	 
485.0	1.0	0.0	2.60464	10.3815	-8.54518	27.22756	201.02787	0.0923985	10.82269	48.76371	59.20385	17.892	0.36272	 	136350.3396	 	2.71385E-5	 	12263.408	30.1022	 
480.0	1.0	0.0	2.60586	10.37667	-8.58774	27.1731	201.25207	0.0916869	10.90669	49.02754	59.36572	17.99364	0.36236	 	157015.7403	 	2.34113E-5	 	12113.295	30.0226	 
475.0	1.0	0.0	2.60706	10.37186	-8.63014	27.11867	201.47381	0.090978	10.99167	49.29025	59.52623	18.0949	0.36199	 	181154.5883	 	2.0157E-5	 	11963.571	29.9448	 
470.0	1.0	0.0	2.60827	10.36706	-8.6724	27.06428	201.69306	0.0902717	11.07767	49.55184	59.68539	18.19577	0.36163	 	209407.0026	 	1.7321E-5	 	11814.229	29.8684	 
465.0	1.0	0.0	2.60947	10.36228	-8.7145	27.00991	201.90979	0.0895681	11.16469	49.8123	59.84321	18.29626	0.36127	 	242541.333	 	1.48541E-5	 	11665.26	29.7938	 
460.0	1.0	0.0	2.61067	10.35752	-8.75646	26.95558	202.12396	0.0888671	11.25276	50.07164	59.99971	18.39636	0.36091	 	281481.8929	 	1.27124E-5	 	11516.656	29.7208	 
455.0	1.0	0.0	2.61187	10.35277	-8.79828	26.90128	202.33553	0.0881688	11.34188	50.32986	60.15492	18.49608	0.36055	 	327343.1327	 	1.08569E-5	 	11368.41	29.6492	 
450.0	1.0	0.0	2.61306	10.34804	-8.83994	26.84702	202.54447	0.087473	11.4321	50.58695	60.30884	18.59541	0.3602	 	381471.8494	 	9.25236E-6	 	11220.512	29.5796	 
445.0	1.0	0.0	2.61426	10.34333	-8.88146	26.79278	202.75073	0.0867798	11.52341	50.84293	60.46149	18.69435	0.35985	 	445499.4566	 	7.86782E-6	 	11072.956	29.5112	 
440.0	1.0	0.0	2.61544	10.33863	-8.92283	26.73858	202.95428	0.0860892	11.61586	51.09778	60.6129	18.7929	0.3595	 	521406.8714	 	6.67561E-6	 	10925.732	29.4448	 
435.0	1.0	0.0	2.61663	10.33395	-8.96406	26.68441	203.15508	0.0854011	11.70945	51.35151	60.76306	18.89106	0.35915	 	611605.2778	 	5.6512E-6	 	10778.834	29.3796	 
430.0	1.0	0.0	2.61781	10.32929	-9.00514	26.63027	203.35309	0.0847156	11.8042	51.60412	60.91201	18.98884	0.3588	 	719036.911	 	4.77291E-6	 	10632.252	29.3164	 
425.0	1.0	0.0	2.61899	10.32464	-9.04607	26.57616	203.54826	0.0840325	11.90015	51.85561	61.05976	19.08622	0.35846	 	847301.1687	 	4.02159E-6	 	10485.98	29.2544	 
420.0	1.0	0.0	2.62016	10.32001	-9.08685	26.52209	203.74054	0.083352	11.99732	52.10597	61.20632	19.18321	0.35811	 	1000812.844	 	3.38035E-6	 	10340.009	29.1942	 
415.0	1.0	0.0	2.62133	10.3154	-9.12749	26.46805	203.92991	0.0826739	12.09572	52.35522	61.3517	19.27981	0.35777	 	1185001.219	 	2.83433E-6	 	10194.335	29.1348	 
410.0	1.0	0.0	2.6225	10.3108	-9.16799	26.41404	204.1163	0.0819982	12.19539	52.60334	61.49592	19.37602	0.35743	 	1406561.285	 	2.37052E-6	 	10048.957	29.0756	 
405.0	1.0	0.0	2.62367	10.30622	-9.20833	26.36007	204.29967	0.081325	12.29634	52.85035	61.639	19.47184	0.3571	 	1673771.668	 	1.9775E-6	 	9903.875	29.0164	 
400.0	1.0	0.0	2.62483	10.30166	-9.24853	26.30612	204.47997	0.0806542	12.39861	53.09623	61.78095	19.56726	0.35676	 	1996898.154	 	1.64529E-6	 	9759.088	28.9574	 
395.0	1.0	0.0	2.62599	10.29711	-9.28859	26.25221	204.65716	0.0799858	12.50221	53.34099	61.92178	19.66228	0.35643	 	2388707.436	 	1.3652E-6	 	9614.595	28.8986	 
390.0	1.0	0.0	2.62714	10.29258	-9.3285	26.19833	204.83118	0.0793198	12.60719	53.58463	62.0615	19.75691	0.3561	 	2865123.206	 	1.12968E-6	 	9470.396	28.8398	 
385.0	1.0	0.0	2.6283	10.28807	-9.36826	26.14448	205.00199	0.0786562	12.71356	53.82715	62.20013	19.85115	0.35577	 	3446066.695	 	9.32155E-7	 	9326.489	28.7814	 
380.0	1.0	0.0	2.62945	10.28357	-9.40788	26.09067	205.16951	0.0779949	12.82135	54.06854	62.33769	19.94499	0.35544	 	4156536.991	 	7.66952E-7	 	9182.875	28.7228	 
375.0	1.0	0.0	2.63059	10.27909	-9.44736	26.03688	205.33371	0.0773359	12.9306	54.30882	62.47418	20.03843	0.35512	 	5028004.138	 	6.29168E-7	 	9039.552	28.6646	 
370.0	1.0	0.0	2.63174	10.27463	-9.48668	25.98313	205.49452	0.0766793	13.04133	54.54798	62.60962	20.13148	0.35479	 	6100211.624	 	5.14581E-7	 	8896.519	28.6066	 
365.0	1.0	0.0	2.63288	10.27018	-9.52587	25.92941	205.65189	0.076025	13.15358	54.78602	62.74403	20.22412	0.35447	 	7423516.645	 	4.19566E-7	 	8753.777	28.5484	 
360.0	1.0	0.0	2.63401	10.26575	-9.5649	25.87573	205.80575	0.0753729	13.26737	55.02293	62.8774	20.31637	0.35415	 	9061939.277	 	3.41014E-7	 	8611.323	28.4908	 
355.0	1.0	0.0	2.63515	10.26133	-9.6038	25.82207	205.95604	0.0747231	13.38274	55.25873	63.00976	20.40821	0.35384	 	1.109714965E7	 	2.76273E-7	 	8469.159	28.4328	 
350.0	1.0	0.0	2.63628	10.25694	-9.64255	25.76845	206.1027	0.0740756	13.49973	55.49341	63.14112	20.49966	0.35352	 	1.36337009E7	 	2.23083E-7	 	8327.283	28.3752	 
345.0	1.0	0.0	2.6374	10.25255	-9.68115	25.71486	206.24566	0.0734303	13.61836	55.72697	63.27149	20.59071	0.35321	 	1.680592303E7	 	1.79522E-7	 	8185.694	28.3178	 
340.0	1.0	0.0	2.63853	10.24819	-9.71961	25.6613	206.38486	0.0727872	13.73868	55.9594	63.40088	20.68135	0.3529	 	2.078703983E7	 	1.43966E-7	 	8044.393	28.2602	 
335.0	1.0	0.0	2.63965	10.24384	-9.75793	25.60778	206.52022	0.0721463	13.86072	56.19072	63.5293	20.77159	0.35259	 	2.580127346E7	 	1.15042E-7	 	7903.378	28.203	 
330.0	1.0	0.0	2.64076	10.2395	-9.7961	25.55428	206.65167	0.0715076	13.98452	56.42092	63.65677	20.86143	0.35228	 	3.213998044E7	 	9.15939E-8	 	7762.649	28.1458	 
325.0	1.0	0.0	2.64188	10.23519	-9.83413	25.50082	206.77914	0.0708711	14.11011	56.65	63.78329	20.95087	0.35197	 	4.018325068E7	 	7.26527E-8	 	7622.206	28.0886	 
320.0	1.0	0.0	2.64299	10.23089	-9.87201	25.44739	206.90254	0.0702368	14.23755	56.87798	63.9089	21.0399	0.35167	 	5.042894156E7	 	5.74079E-8	 	7482.048	28.0316	 
315.0	1.0	0.0	2.64409	10.2266	-9.90975	25.394	207.02181	0.0696046	14.36686	57.10482	64.03356	21.12853	0.35137	 	6.353187515E7	 	4.51838E-8	 	7342.175	27.9746	 
310.0	1.0	0.0	2.6452	10.22234	-9.94734	25.34063	207.13686	0.0689746	14.4981	57.33054	64.15731	21.21675	0.35107	 	8.035699106E7	 	3.54196E-8	 	7202.587	27.9176	 
305.0	1.0	0.0	2.6463	10.21808	-9.9848	25.2873	207.24761	0.0683466	14.6313	57.55514	64.28016	21.30456	0.35077	 	1.020517509E8	 	2.76507E-8	 	7063.282	27.861	 
300.0	1.0	0.0	2.6474	10.21385	-10.02211	25.234	207.35396	0.0677208	14.76651	57.77862	64.40212	21.39197	0.35047	 	1.301452263E8	 	2.14945E-8	 	6924.261	27.8042	 
295.0	1.0	0.0	2.64849	10.20963	-10.05927	25.18074	207.45583	0.0670971	14.90378	58.00098	64.5232	21.47897	0.35018	 	1.666843501E8	 	1.66362E-8	 	6785.524	27.7474	 
290.0	1.0	0.0	2.64958	10.20543	-10.0963	25.1275	207.55312	0.0664754	15.04316	58.22223	64.6434	21.56557	0.34989	 	2.144221871E8	 	1.28186E-8	 	6647.07	27.6908	 
285.0	1.0	0.0	2.65067	10.20124	-10.13318	25.0743	207.64574	0.0658558	15.18469	58.44235	64.76275	21.65175	0.3496	 	2.77079384E8	 	9.83181E-9	 	6508.899	27.6342	 
280.0	1.0	0.0	2.65175	10.19707	-10.16991	25.02113	207.73359	0.0652382	15.32843	58.66136	64.88124	21.73753	0.34931	 	3.597091138E8	 	7.50547E-9	 	6371.011	27.5776	 
275.0	1.0	0.0	2.65283	10.19292	-10.20651	24.96799	207.81656	0.0646227	15.47443	58.87925	64.99889	21.82289	0.34902	 	4.692091619E8	 	5.7019E-9	 	6233.405	27.5212	 
270.0	1.0	0.0	2.65391	10.18878	-10.24296	24.91488	207.89454	0.0640093	15.62274	59.09602	65.1157	21.90785	0.34874	 	6.15044368E8	 	4.31023E-9	 	6096.083	27.4644	 
265.0	1.0	0.0	2.65498	10.18466	-10.27927	24.86181	207.96744	0.0633978	15.77342	59.31167	65.23169	21.99239	0.34846	 	8.102714879E8	 	3.2416E-9	 	5959.043	27.408	 
260.0	1.0	0.0	2.65606	10.18055	-10.31543	24.80877	208.03512	0.0627883	15.92653	59.5262	65.34687	22.07652	0.34818	 	1.073001347E9	 	2.42513E-9	 	5822.286	27.3514	 
255.0	1.0	0.0	2.65712	10.17646	-10.35146	24.75576	208.09748	0.0621808	16.08213	59.73962	65.46124	22.16024	0.3479	 	1.428497069E9	 	1.80453E-9	 	5685.812	27.2948	 
250.0	1.0	0.0	2.65819	10.17239	-10.38734	24.70278	208.15439	0.0615753	16.24027	59.95192	65.57482	22.24355	0.34762	 	1.912203161E9	 	1.3353E-9	 	5549.62	27.2384	 
245.0	1.0	0.0	2.65925	10.16833	-10.42308	24.64983	208.20572	0.0609718	16.40103	60.16309	65.68761	22.32645	0.34735	 	2.574145393E9	 	9.82447E-10	 	5413.712	27.1816	 
240.0	1.0	0.0	2.6603	10.16429	-10.45868	24.59692	208.25133	0.0603702	16.56446	60.37315	65.79962	22.40893	0.34708	 	3.485362301E9	 	7.18593E-10	 	5278.087	27.125	 
235.0	1.0	0.0	2.66136	10.16027	-10.49414	24.54404	208.2911	0.0597706	16.73065	60.5821	65.91085	22.49099	0.34681	 	4.747367634E9	 	5.22427E-10	 	5142.746	27.0682	 
230.0	1.0	0.0	2.66241	10.15626	-10.52945	24.49119	208.32488	0.0591728	16.89964	60.78992	66.02133	22.57264	0.34654	 	6.506165321E9	 	3.7745E-10	 	5007.689	27.0114	 
225.0	1.0	0.0	2.66346	10.15226	-10.56463	24.43838	208.35251	0.058577	17.07153	60.99663	66.13105	22.65388	0.34627	 	8.973150152E9	 	2.70958E-10	 	4872.916	26.9546	 
220.0	1.0	0.0	2.6645	10.14829	-10.59966	24.38559	208.37385	0.0579832	17.24639	61.20222	66.24003	22.7347	0.34601	 	1.2456499999999998E10	 	1.93228E-10	 	4738.429	26.8974	 
215.0	1.0	0.0	2.66554	10.14433	-10.63455	24.33284	208.38873	0.0573912	17.42428	61.40669	66.34827	22.8151	0.34575	 	1.74087E10	 	1.36859E-10	 	4604.226	26.8406	 
210.0	1.0	0.0	2.66658	10.14038	-10.6693	24.28012	208.39699	0.0568011	17.6053	61.61004	66.45578	22.89509	0.34549	 	2.4498699999999996E10	 	9.62555E-11	 	4470.31	26.7832	 
205.0	1.0	0.0	2.66761	10.13645	-10.70391	24.22743	208.39845	0.0562129	17.78952	61.81228	66.56257	22.97465	0.34523	 	3.47236E10	 	6.72089E-11	 	4336.681	26.7258	 
200.0	1.0	0.0	2.66864	10.13254	-10.73838	24.17478	208.39293	0.0556265	17.97703	62.0134	66.66865	23.0538	0.34497	 	4.958009999999999E10	 	4.65778E-11	 	4203.34	26.6682	 
195.0	1.0	0.0	2.66967	10.12864	-10.77271	24.12216	208.38024	0.055042	18.16793	62.2134	66.77401	23.13253	0.34472	 	7.13335E10	 	3.20315E-11	 	4070.287	26.6106	 
190.0	1.0	0.0	2.67069	10.12476	-10.8069	24.06957	208.36019	0.0544594	18.3623	62.41229	66.87869	23.21085	0.34446	 	1.03441E11	 	2.18533E-11	 	3937.524	26.5526	 
185.0	1.0	0.0	2.67171	10.1209	-10.84094	24.01701	208.33257	0.0538786	18.56023	62.61006	66.98266	23.28874	0.34421	 	1.51221E11	 	1.47871E-11	 	3805.052	26.4944	 
