T (C)	Fraction solid (wt)-TOTAL	Fraction liquid (wt)-LIQUID	Density (g/(cm)^3)-TOTAL	Molar volume (cm^3)-TOTAL	Volume change (%)-  	Average expansion coeff. (10e-6 1/K)-  	Thermal conductivity (W/(m*K))-TOTAL	Electrical resistivity (10e-6 Ohm*m)-TOTAL	Electrical conductivity (10e6 1/(Ohm*m))-TOTAL	Young's modulus (GPa)-TOTAL	Bulk modulus (GPa)-TOTAL	Shear modulus(GPa)-TOTAL	Poisson's ratio-TOTAL	Liquid viscosity (mPa s)-  	Total viscosity (mPa s)-  	Liquid diffusivity (10e-9 (m^2)/s)-  	Total diffusivity (10e-9 (m^2)/s)-  	Surface Tension (mN/m)-  	Enthalpy (J/mole)-TOTAL	Specific heat (J/(mole K))-TOTAL	Latent heat (J/mole)-TOTAL
700.0	0.0	1.0	2.48121	11.40966	0.0	68.21791	88.35012	0.26986	3.70562	0.0	49.20707	0.0	0.5	1.27511	1.27511	3.72495	3.72495	720.89994	29560.358	 	0.0
695.0	0.0	1.0	2.48294	11.40174	-0.0694493	68.33375	88.17406	0.26901	3.71734	0.0	49.27972	0.0	0.5	1.28873	1.28873	3.66662	3.66662	721.89966	29401.723	31.727	0.0
690.0	0.0	1.0	2.48466	11.39384	-0.13867	68.45262	87.99798	0.26816	3.72917	0.0	49.35237	0.0	0.5	1.30265	1.30265	3.60871	3.60871	722.89909	29243.088	31.727	0.0
685.0	0.0	1.0	2.48637	11.38597	-0.20767	68.57459	87.82189	0.2673	3.74113	0.0	49.42501	0.0	0.5	1.31687	1.31687	3.55122	3.55122	723.89825	29084.453	31.727	0.0
680.0	0.0	1.0	2.48809	11.37812	-0.27644	68.69972	87.64579	0.26644	3.75322	0.0	49.49766	0.0	0.5	1.33139	1.33139	3.49415	3.49415	724.89711	28925.819	31.7268	0.0
675.0	0.0	1.0	2.4898	11.3703	-0.34499	68.8281	87.46969	0.26557	3.76543	0.0	49.57031	0.0	0.5	1.34623	1.34623	3.43751	3.43751	725.89567	28767.186	31.7266	0.0
672.06	0.0	1.0	2.4908	11.36572	-0.38513	68.90501	87.36628	0.26507	3.77266	0.0	49.61297	0.0	0.5	1.35509	1.35509	3.40445	3.40445	726.48184	28674.043	31.7267	0.0
670.0	4.7E-4	0.99953	2.49159	11.36215	-0.41642	68.94151	87.30035	0.26469	3.77806	2.99581E-12	49.64606	9.98682E-13	0.49988	1.36104	1.36104	3.38218	3.38218	726.89712	28600.037	35.852	8.517
665.0	0.00153	0.99847	2.49348	11.35347	-0.49248	69.02925	87.13881	0.26377	3.79117	3.4781E-10	49.72572	1.15968E-10	0.4996	1.3757	1.3757	3.32839	3.32839	727.90247	28422.005	35.6064	27.916
660.0	0.0025	0.9975	2.49536	11.34498	-0.56693	69.128	86.97647	0.26285	3.80438	2.50459E-9	49.80561	8.35227E-10	0.49935	1.39076	1.39076	3.27481	3.27481	728.90694	28245.61	35.279	45.668
655.0	0.00339	0.99661	2.49721	11.3365	-0.64119	69.2294	86.81235	0.26194	3.81766	8.501E-9	49.88511	2.83534E-9	0.49911	1.40621	1.40621	3.22147	3.22147	729.91062	28070.921	34.9378	61.906
650.0	0.0042	0.9958	2.49905	11.32818	-0.71412	69.34055	86.64754	0.26103	3.83105	2.01845E-8	49.96473	6.73309E-9	0.4989	1.42207	1.42207	3.16839	3.16839	730.91347	27897.949	34.5944	76.745
645.0	0.00494	0.99506	2.50087	11.31999	-0.78591	69.46047	86.48202	0.26011	3.84456	3.88844E-8	50.04443	1.29726E-8	0.49871	1.43834	1.43834	3.11558	3.11558	731.89664	27726.597	34.2704	90.297
640.0	0.00562	0.99438	2.50268	11.31182	-0.85752	69.58344	86.315	0.25919	3.85814	6.53143E-8	50.12369	2.17927E-8	0.49853	1.45504	1.45504	3.06306	3.06306	732.89901	27556.772	33.965	102.664
635.0	0.00624	0.99376	2.50447	11.30363	-0.92932	69.70728	86.14646	0.25828	3.87181	9.96149E-8	50.20243	3.32411E-8	0.49837	1.47216	1.47216	3.01085	3.01085	733.90067	27388.38	33.6784	113.939
634.89	0.00625	0.99375	2.50451	11.30345	-0.93087	69.71074	86.14259	0.25826	3.87212	1.00486E-7	50.20423	3.35319E-8	0.49836	1.47256	1.47256	3.00965	3.00965	733.92368	27384.524	 	114.186
634.88	0.00625	0.99375	2.50451	11.30345	-0.93089	69.71064	86.1427	0.25826	3.87213	1.00489E-7	50.20416	3.35329E-8	0.49836	1.47256	1.48405	3.00965	2.98635	733.9237	27384.495	 	114.21
630.0	0.12102	0.87898	2.52493	11.21203	-1.73212	65.24921	91.78226	0.24108	4.14794	0.00629491	50.3077	0.00212062	0.48421	1.49602	2.81929	2.94652	1.56353	734.0201	25985.481	280.58	1360.064
625.0	0.25206	0.74794	2.54845	11.1086	-2.63861	60.06122	98.93344	0.22242	4.49602	0.13796	50.55848	0.0469999	0.46763	1.52559	24.37201	2.87342	0.17986	733.79904	24411.909	314.714	2777.203
620.0	0.36576	0.63424	2.56932	11.01837	-3.42944	55.52349	106.08653	0.20627	4.84808	0.65421	50.80368	0.22515	0.45285	1.55906	111.69801	2.79608	0.039027	733.48708	23030.339	276.314	4002.681
615.0	0.45574	0.54426	2.58629	10.94606	-4.06321	51.91878	112.64489	0.19317	5.17677	1.64643	51.03698	0.57134	0.44086	1.59501	294.0328	2.71775	0.0147427	733.21125	21907.1	224.648	4970.167
610.0	0.52607	0.47393	2.59995	10.88857	-4.5671	49.09472	118.37849	0.18278	5.47107	3.01653	51.25969	1.0538	0.43126	1.6328	575.35138	2.63991	0.00749183	733.00893	20997.0	182.02	5724.854
605.0	0.58164	0.41836	2.61107	10.84219	-4.97362	46.8589	123.43974	0.17429	5.73747	4.62031	51.47443	1.62287	0.4235	1.67215	950.7598	2.56318	0.00450801	732.88542	20246.335	150.133	6320.446
600.0	0.62623	0.37377	2.6203	10.804	-5.30829	45.05819	127.81795	0.16736	5.97499	6.33587	51.68308	2.23545	0.41714	1.71296	1415.73144	2.48788	0.0030102	732.83767	19613.926	126.482	6798.119
595.0	0.66258	0.33742	2.62807	10.77203	-5.58851	43.58839	131.59477	0.16163	6.18697	8.07772	51.88748	2.86071	0.41184	1.75514	1969.19077	2.41418	0.00215176	732.8598	19070.25	108.735	7187.395
590.0	0.69262	0.30738	2.63474	10.74478	-5.8273	42.37072	134.85337	0.15682	6.3769	9.79142	52.08862	3.47864	0.40736	1.79868	2613.8771	2.34217	0.00161171	732.94603	18594.291	95.1918	7509.287
589.76	0.69393	0.30607	2.63504	10.74356	-5.83802	42.31697	134.99945	0.1566	6.38561	9.87281	52.09844	3.50805	0.40716	1.80084	2647.56432	2.33871	0.00159076	732.95191	18572.679	 	7523.398
585.0	0.7205	0.2795	2.64104	10.71913	-6.05216	41.22567	137.93863	0.15242	6.5608	11.62301	52.28514	4.14195	0.40308	1.8418	3405.02904	2.27409	0.00123007	733.04984	18136.949	91.4684	7812.895
580.0	0.74388	0.25612	2.64654	10.69688	-6.24713	40.26432	140.59694	0.14867	6.72643	13.37083	52.48026	4.77728	0.39942	1.8864	4310.62381	2.20739	9.65989E-4	733.21361	17728.524	81.685	8067.917
575.0	0.76354	0.23646	2.65137	10.67737	-6.41814	39.45078	142.88303	0.14543	6.8761	15.01216	52.67418	5.37584	0.39626	1.93256	5339.90979	2.14203	7.75221E-4	733.43487	17360.575	73.5898	8282.793
570.0	0.78024	0.21976	2.65568	10.66007	-6.56978	38.75712	144.85656	0.1426	7.01241	16.5437	52.86702	5.93596	0.39351	1.98029	6508.11706	2.07809	6.32319E-4	733.70825	17024.918	67.1314	8465.704
565.0	0.79457	0.20543	2.65955	10.64454	-6.70585	38.15999	146.56868	0.1401	7.13762	17.96902	53.05881	6.45856	0.3911	2.02957	7834.86341	2.0156	5.22128E-4	734.02899	16715.309	61.9218	8622.892
560.0	0.80694	0.19306	2.66308	10.63045	-6.82938	37.64067	148.06114	0.13786	7.25357	19.29426	53.24954	6.94558	0.38896	2.08041	9343.70279	1.95461	4.35202E-4	734.39297	16426.954	57.671	8759.151
555.0	0.81773	0.18227	2.66631	10.61755	-6.94246	37.18631	149.36917	0.13584	7.36183	20.52761	53.43923	7.39978	0.38704	2.13282	11063.14945	1.89514	3.65357E-4	734.79642	16156.129	54.165	8878.198
550.0	0.82718	0.17282	2.66931	10.60563	-7.04688	36.78593	150.52039	0.13398	7.46363	21.67682	53.62788	7.8238	0.38531	2.1868	13026.12693	1.8372	3.08426E-4	735.23617	15899.904	51.245	8982.963
545.0	0.83553	0.16447	2.67211	10.59453	-7.14421	36.42955	151.53647	0.13228	7.55994	22.74893	53.81532	8.22008	0.38374	2.24238	15270.92742	1.78078	2.61489E-4	735.70955	15655.948	48.7912	9075.774
540.0	0.84294	0.15706	2.67473	10.58415	-7.23523	36.11273	152.43955	0.13069	7.65175	23.75315	54.00177	8.59187	0.3823	2.29959	17844.94455	1.72587	2.22404E-4	736.21379	15422.387	46.7122	9158.502
535.0	0.84956	0.15044	2.67721	10.57432	-7.32131	35.82642	153.24255	0.1292	7.73965	24.69481	54.18694	8.94105	0.38098	2.35845	20800.20692	1.67244	1.89632E-4	736.7471	15197.702	44.937	9232.664
530.0	0.8555	0.1445	2.67957	10.56505	-7.40261	35.57035	153.96016	0.12781	7.8243	25.5804	54.37108	9.26992	0.37975	2.41901	24200.93118	1.62049	1.61976E-4	737.30709	14980.65	43.4104	9299.501
525.0	0.86086	0.13914	2.68182	10.55616	-7.48048	35.33522	154.60276	0.12648	7.90618	26.41612	54.5539	9.5807	0.37861	2.48133	28120.78436	1.56995	1.3853E-4	737.89261	14770.207	42.0886	9360.031
520.14	0.86558	0.13442	2.68391	10.54793	-7.55263	35.12935	155.16553	0.12526	7.98359	27.1855	54.73067	9.86717	0.37757	2.54364	32514.15459	1.52217	1.19082E-4	738.48435	14571.113	 	9413.643
520.0	0.86576	0.13424	2.68398	10.54767	-7.55492	35.12161	155.1866	0.12522	7.98606	27.21417	54.73619	9.87785	0.37753	2.54556	32656.05039	1.52075	1.18544E-4	738.50298	14564.738	41.0938	9415.886
515.0	0.87172	0.12828	2.68624	10.53879	-7.63271	34.8777	155.87641	0.12388	8.07245	28.19489	54.9329	10.24332	0.37626	2.61572	38164.36045	1.47063	1.00795E-4	739.18028	14340.133	44.921	9491.176
510.0	0.87689	0.12311	2.68837	10.53042	-7.70612	34.66302	156.46878	0.12263	8.15486	29.09019	55.12522	10.57747	0.3751	2.68746	44509.95575	1.4223	8.58765E-5	739.86854	14125.884	42.8498	9556.404
505.0	0.88144	0.11856	2.6904	10.52247	-7.77579	34.4735	156.98088	0.12145	8.23412	29.91392	55.31384	10.88534	0.37405	2.76088	51843.22134	1.37563	7.32585E-5	740.56835	13920.024	41.172	9613.528
500.0	0.88547	0.11453	2.69235	10.51486	-7.84248	34.30373	157.4267	0.12032	8.31091	30.67756	55.49929	11.17113	0.37307	2.8361	60341.86943	1.33054	6.25362E-5	741.28034	13721.062	39.7924	9664.04
495.0	0.88907	0.11093	2.69423	10.50755	-7.90654	34.15158	157.81737	0.11925	8.38576	31.39045	55.68203	11.43826	0.37217	2.91327	70217.56179	1.28692	5.33933E-5	742.00464	13527.846	38.6432	9709.093
490.0	0.89232	0.10768	2.69604	10.50046	-7.96868	34.01175	158.16085	0.11822	8.45908	32.06052	55.86221	11.68966	0.37132	2.99251	81720.20301	1.24469	4.55793E-5	742.74178	13339.474	37.6744	9749.578
485.0	0.89526	0.10474	2.69781	10.4936	-8.02884	33.88531	158.46342	0.11722	8.53115	32.69303	56.0402	11.92723	0.37052	3.07393	95147.0389	1.20378	3.88908E-5	743.4914	13155.232	36.8484	9786.211
480.0	0.89794	0.10206	2.69953	10.48691	-8.08745	33.76895	158.73078	0.11625	8.60228	33.29297	56.21615	12.15281	0.36976	3.15773	110853.6471	1.16411	3.31603E-5	744.2537	12974.544	36.1376	9819.559
475.75	0.90004	0.0999615	2.70096	10.48136	-8.13611	33.67806	158.93283	0.11544	8.66215	33.77977	56.36437	12.33605	0.36915	3.23092	126322.2	1.13131	2.89354E-5	744.91193	12823.357	 	9845.615
475.38	1.0	0.0	2.72355	10.39443	-8.89803	27.28757	167.28385	0.10963	9.12178	49.11358	56.32192	18.12758	0.35466	 	179676.0303	 	2.03332E-5	 	11839.211	 	10818.932
470.0	1.0	0.0	2.72491	10.38924	-8.94348	27.22986	167.21492	0.10888	9.18401	49.40541	56.50886	18.24041	0.35428	 	209974.0754	 	1.72742E-5	 	11678.371	129.617	 
465.0	1.0	0.0	2.72617	10.38444	-8.98558	27.17623	167.14725	0.1082	9.24248	49.6755	56.68113	18.34489	0.35393	 	243202.2676	 	1.48137E-5	 	11529.228	29.8286	 
460.0	1.0	0.0	2.72743	10.37965	-9.02755	27.12265	167.07611	0.10751	9.30155	49.9444	56.85196	18.44896	0.35358	 	282253.8056	 	1.26777E-5	 	11380.45	29.7556	 
455.0	1.0	0.0	2.72868	10.37488	-9.06936	27.06909	167.00145	0.10682	9.36124	50.21212	57.02135	18.55261	0.35324	 	328246.5451	 	1.0827E-5	 	11232.029	29.6842	 
450.0	1.0	0.0	2.72994	10.37012	-9.11103	27.01557	166.92325	0.10614	9.42155	50.47867	57.18933	18.65586	0.35289	 	382531.4224	 	9.22673E-6	 	11083.958	29.6142	 
445.0	1.0	0.0	2.73118	10.36538	-9.15256	26.96208	166.84149	0.10546	9.4825	50.74402	57.35592	18.7587	0.35255	 	446744.8937	 	7.84589E-6	 	10936.23	29.5456	 
440.0	1.0	0.0	2.73243	10.36066	-9.19394	26.90862	166.75613	0.10478	9.5441	51.0082	57.52112	18.86113	0.3522	 	522874.0354	 	6.65688E-6	 	10788.838	29.4784	 
435.0	1.0	0.0	2.73367	10.35596	-9.23518	26.85519	166.66714	0.1041	9.60635	51.2712	57.68495	18.96315	0.35186	 	613337.5722	 	5.63524E-6	 	10641.774	29.4128	 
430.0	1.0	0.0	2.73491	10.35127	-9.27627	26.8018	166.57448	0.10342	9.66929	51.53301	57.84744	19.06475	0.35153	 	721086.9959	 	4.75934E-6	 	10495.033	29.3482	 
425.0	1.0	0.0	2.73614	10.3466	-9.31722	26.74843	166.47814	0.10274	9.7329	51.79365	58.00859	19.16594	0.35119	 	849733.0958	 	4.01008E-6	 	10348.608	29.285	 
420.0	1.0	0.0	2.73737	10.34194	-9.35803	26.6951	166.37806	0.10207	9.79722	52.0531	58.16842	19.26672	0.35086	 	1003704.722	 	3.37061E-6	 	10202.491	29.2234	 
415.0	1.0	0.0	2.7386	10.3373	-9.39869	26.6418	166.27423	0.1014	9.86224	52.31137	58.32695	19.36709	0.35052	 	1188448.548	 	2.82611E-6	 	10056.678	29.1626	 
410.0	1.0	0.0	2.73983	10.33268	-9.43921	26.58854	166.1666	0.10073	9.928	52.56847	58.48418	19.46704	0.35019	 	1410681.145	 	2.3636E-6	 	9911.163	29.103	 
405.0	1.0	0.0	2.74105	10.32807	-9.47958	26.5353	166.05514	0.10006	9.99449	52.82438	58.64015	19.56657	0.34986	 	1678707.984	 	1.97168E-6	 	9765.946	29.0434	 
400.0	1.0	0.0	2.74227	10.32348	-9.51981	26.4821	165.9398	0.0993865	10.06173	53.07911	58.79485	19.66569	0.34954	 	2002828.352	 	1.64042E-6	 	9621.027	28.9838	 
395.0	1.0	0.0	2.74348	10.31891	-9.5599	26.42893	165.82056	0.0987192	10.12974	53.33266	58.94831	19.76439	0.34921	 	2395850.865	 	1.36113E-6	 	9476.403	28.9248	 
390.0	1.0	0.0	2.7447	10.31435	-9.59984	26.37579	165.69737	0.0980533	10.19853	53.58504	59.10053	19.86268	0.34889	 	2873751.836	 	1.12629E-6	 	9332.074	28.8658	 
385.0	1.0	0.0	2.74591	10.30981	-9.63964	26.32269	165.5702	0.0973888	10.26813	53.83623	59.25154	19.96055	0.34857	 	3456518.749	 	9.29336E-7	 	9188.04	28.8068	 
380.0	1.0	0.0	2.74711	10.30528	-9.6793	26.26962	165.43899	0.0967255	10.33853	54.08624	59.40134	20.058	0.34825	 	4169234.371	 	7.64616E-7	 	9044.299	28.7482	 
375.0	1.0	0.0	2.74831	10.30078	-9.71882	26.21657	165.30372	0.0960636	10.40977	54.33508	59.54995	20.15503	0.34793	 	5043474.767	 	6.27238E-7	 	8900.85	28.6898	 
370.0	1.0	0.0	2.74951	10.29628	-9.75819	26.16357	165.16432	0.095403	10.48185	54.58273	59.69738	20.25164	0.34761	 	6119118.203	 	5.12991E-7	 	8757.694	28.6312	 
365.0	1.0	0.0	2.75071	10.29181	-9.79742	26.11059	165.02077	0.0947437	10.55479	54.82921	59.84364	20.34783	0.3473	 	7446693.775	 	4.1826E-7	 	8614.828	28.5732	 
360.0	1.0	0.0	2.7519	10.28735	-9.83651	26.05765	164.87301	0.0940856	10.62862	55.0745	59.98875	20.4436	0.34699	 	9090441.562	 	3.39945E-7	 	8472.252	28.5152	 
355.0	1.0	0.0	2.75309	10.2829	-9.87545	26.00473	164.72099	0.0934287	10.70334	55.31862	60.13272	20.53894	0.34668	 	1.113231425E7	 	2.754E-7	 	8329.966	28.4572	 
350.0	1.0	0.0	2.75428	10.27848	-9.91425	25.95185	164.56466	0.0927731	10.77899	55.56156	60.27557	20.63387	0.34637	 	1.367722914E7	 	2.22373E-7	 	8187.968	28.3996	 
345.0	1.0	0.0	2.75546	10.27407	-9.95291	25.89901	164.40398	0.0921187	10.85556	55.80332	60.41729	20.72837	0.34606	 	1.685998734E7	 	1.78947E-7	 	8046.259	28.3418	 
340.0	1.0	0.0	2.75664	10.26967	-9.99143	25.84619	164.23889	0.0914654	10.9331	56.04391	60.55791	20.82245	0.34576	 	2.085442439E7	 	1.43501E-7	 	7904.836	28.2846	 
335.0	1.0	0.0	2.75781	10.26529	-10.02981	25.79341	164.06933	0.0908133	11.0116	56.28331	60.69744	20.9161	0.34545	 	2.588555981E7	 	1.14667E-7	 	7763.701	28.227	 
330.0	1.0	0.0	2.75899	10.26093	-10.06804	25.74065	163.89525	0.0901623	11.09111	56.52154	60.83589	21.00933	0.34515	 	3.224579352E7	 	9.12933E-8	 	7622.852	28.1698	 
325.0	1.0	0.0	2.76016	10.25658	-10.10614	25.68793	163.71659	0.0895125	11.17163	56.75859	60.97327	21.10214	0.34485	 	4.031658634E7	 	7.24124E-8	 	7482.288	28.1128	 
320.0	1.0	0.0	2.76132	10.25225	-10.14409	25.63525	163.53329	0.0888637	11.25319	56.99446	61.10959	21.19452	0.34456	 	5.059760421E7	 	5.72165E-8	 	7342.009	28.0558	 
315.0	1.0	0.0	2.76248	10.24794	-10.1819	25.58259	163.34529	0.088216	11.33581	57.22915	61.24486	21.28647	0.34426	 	6.374606526E7	 	4.5032E-8	 	7202.014	27.999	 
310.0	1.0	0.0	2.76364	10.24364	-10.21957	25.52997	163.15253	0.0875694	11.41951	57.46267	61.37909	21.37799	0.34397	 	8.063009722E7	 	3.52996E-8	 	7062.304	27.942	 
305.0	1.0	0.0	2.7648	10.23936	-10.2571	25.47738	162.95493	0.0869239	11.50432	57.695	61.5123	21.46909	0.34368	 	1.024014225E8	 	2.75563E-8	 	6922.877	27.8854	 
300.0	1.0	0.0	2.76595	10.23509	-10.29449	25.42482	162.75242	0.0862794	11.59026	57.92617	61.6445	21.55975	0.34339	 	1.305948327E8	 	2.14205E-8	 	6783.734	27.8286	 
295.0	1.0	0.0	2.7671	10.23084	-10.33173	25.3723	162.54495	0.0856359	11.67735	58.15615	61.77569	21.64999	0.3431	 	1.672649763E8	 	1.65785E-8	 	6644.873	27.7722	 
290.0	1.0	0.0	2.76824	10.22661	-10.36884	25.3198	162.33243	0.0849933	11.76563	58.38496	61.90589	21.7398	0.34281	 	2.151753739E8	 	1.27737E-8	 	6506.294	27.7158	 
285.0	1.0	0.0	2.76939	10.22239	-10.4058	25.26734	162.11478	0.0843518	11.85511	58.61259	62.0351	21.82918	0.34253	 	2.780609118E8	 	9.7971E-9	 	6367.998	27.6592	 
280.0	1.0	0.0	2.77053	10.21819	-10.44263	25.21491	161.89193	0.0837112	11.94583	58.83904	62.16334	21.91813	0.34225	 	3.609942529E8	 	7.47876E-9	 	6229.984	27.6028	 
275.0	1.0	0.0	2.77166	10.21401	-10.47931	25.16251	161.6638	0.0830716	12.0378	59.06432	62.29061	22.00664	0.34197	 	4.708999958E8	 	5.68143E-9	 	6092.251	27.5466	 
270.0	1.0	0.0	2.77279	10.20984	-10.51586	25.11015	161.4303	0.0824329	12.13107	59.28842	62.41693	22.09472	0.34169	 	6.172800645E8	 	4.29462E-9	 	5954.8	27.4902	 
265.0	1.0	0.0	2.77392	10.20568	-10.55226	25.05781	161.19134	0.0817952	12.22566	59.51134	62.5423	22.18237	0.34141	 	8.132427825E8	 	3.22976E-9	 	5817.63	27.434	 
260.0	1.0	0.0	2.77505	10.20155	-10.58853	25.00551	160.94682	0.0811583	12.32159	59.73309	62.66674	22.26959	0.34114	 	1.076971084E9	 	2.4162E-9	 	5680.741	27.3778	 
255.0	1.0	0.0	2.77617	10.19742	-10.62465	24.95324	160.69666	0.0805224	12.41891	59.95366	62.79026	22.35638	0.34086	 	1.4338295E9	 	1.79782E-9	 	5544.134	27.3214	 
250.0	1.0	0.0	2.77729	10.19332	-10.66064	24.90101	160.44076	0.0798873	12.51764	60.17305	62.91285	22.44272	0.34059	 	1.919405995E9	 	1.33029E-9	 	5407.808	27.2652	 
245.0	1.0	0.0	2.7784	10.18923	-10.69648	24.8488	160.17901	0.0792531	12.61781	60.39127	63.03454	22.52864	0.34032	 	2.583930501E9	 	9.78727E-10	 	5271.763	27.209	 
240.0	1.0	0.0	2.77951	10.18515	-10.73219	24.79663	159.9113	0.0786197	12.71946	60.60831	63.15533	22.61411	0.34005	 	3.498733924E9	 	7.15847E-10	 	5136.0	27.1526	 
235.0	1.0	0.0	2.78062	10.1811	-10.76775	24.74449	159.63753	0.0779871	12.82263	60.82418	63.27523	22.69916	0.33979	 	4.765751378E9	 	5.20412E-10	 	5000.519	27.0962	 
230.0	1.0	0.0	2.78172	10.17705	-10.80318	24.69238	159.35757	0.0773554	12.92734	61.03887	63.39425	22.78376	0.33953	 	6.531598065E9	 	3.7598E-10	 	4865.32	27.0398	 
225.0	1.0	0.0	2.78283	10.17303	-10.83847	24.64031	159.07132	0.0767245	13.03364	61.25238	63.5124	22.86793	0.33926	 	9.008561546E9	 	2.69893E-10	 	4730.403	26.9834	 
220.0	1.0	0.0	2.78392	10.16902	-10.87362	24.58826	158.77863	0.0760945	13.14156	61.46472	63.62968	22.95166	0.339	 	1.2506099999999998E10	 	1.92461E-10	 	4595.768	26.927	 
215.0	1.0	0.0	2.78502	10.16502	-10.90863	24.53625	158.47939	0.0754652	13.25115	61.67588	63.7461	23.03495	0.33875	 	1.74787E10	 	1.36311E-10	 	4461.417	26.8702	 
210.0	1.0	0.0	2.78611	10.16104	-10.9435	24.48427	158.17345	0.0748367	13.36243	61.88587	63.86168	23.1178	0.33849	 	2.4598199999999996E10	 	9.5866E-11	 	4327.349	26.8136	 
205.0	1.0	0.0	2.78719	10.15708	-10.97823	24.43233	157.86068	0.0742089	13.47546	62.09469	63.97642	23.20021	0.33824	 	3.48661E10	 	6.69342E-11	 	4193.566	26.7566	 
200.0	1.0	0.0	2.78828	10.15313	-11.01283	24.38041	157.54092	0.073582	13.59028	62.30232	64.09033	23.28218	0.33798	 	4.978559999999999E10	 	4.63855E-11	 	4060.068	26.6996	 
195.0	1.0	0.0	2.78936	10.1492	-11.04729	24.32853	157.21403	0.0729558	13.70693	62.50879	64.20341	23.36371	0.33773	 	7.16322E10	 	3.1898E-11	 	3926.855	26.6426	 
190.0	1.0	0.0	2.79044	10.14529	-11.0816	24.27668	156.87983	0.0723304	13.82545	62.71407	64.31568	23.4448	0.33748	 	1.03878E11	 	2.17612E-11	 	3793.93	26.585	 
185.0	1.0	0.0	2.79151	10.14139	-11.11579	24.22486	156.53817	0.0717057	13.9459	62.91819	64.42714	23.52545	0.33724	 	1.51868E11	 	1.47241E-11	 	3661.291	26.5278	 
180.0	1.0	0.0	2.79258	10.1375	-11.14983	24.17307	156.18886	0.0710817	14.06831	63.12112	64.53779	23.60565	0.33699	 	2.23895E11	 	9.87834E-12	 	3528.942	26.4698	 
175.0	1.0	0.0	2.79364	10.13363	-11.18373	24.12132	155.83173	0.0704585	14.19275	63.32289	64.64766	23.68541	0.33675	 	3.32955E11	 	6.56937E-12	 	3396.882	26.412	 
170.0	1.0	0.0	2.79471	10.12978	-11.2175	24.0696	155.46657	0.0698361	14.31925	63.52347	64.75674	23.76473	0.33651	 	4.99593E11	 	4.32933E-12	 	3265.114	26.3536	 
