T (C)	Fraction solid (wt)-TOTAL	Fraction liquid (wt)-LIQUID	Density (g/(cm)^3)-TOTAL	Molar volume (cm^3)-TOTAL	Volume change (%)-  	Average expansion coeff. (10e-6 1/K)-  	Thermal conductivity (W/(m*K))-TOTAL	Electrical resistivity (10e-6 Ohm*m)-TOTAL	Electrical conductivity (10e6 1/(Ohm*m))-TOTAL	Young's modulus (GPa)-TOTAL	Bulk modulus (GPa)-TOTAL	Shear modulus(GPa)-TOTAL	Poisson's ratio-TOTAL	Liquid viscosity (mPa s)-  	Total viscosity (mPa s)-  	Liquid diffusivity (10e-9 (m^2)/s)-  	Total diffusivity (10e-9 (m^2)/s)-  	Surface Tension (mN/m)-  	Enthalpy (J/mole)-TOTAL	Specific heat (J/(mole K))-TOTAL	Latent heat (J/mole)-TOTAL
1500.0	7.4E-4	0.99926	6.50326	8.13795	0.0	34.42371	31.53228	1.83235	0.54575	1.58644E-10	97.41773	5.30083E-11	0.49641	5.46424	5.46424	1.58381	1.58381	1546.36948	57025.246	 	0.0
1495.0	7.4E-4	0.99926	6.50725	8.13306	-0.060057	34.38387	31.46005	1.83138	0.54604	1.65957E-10	97.60547	5.54516E-11	0.49642	5.5094	5.5094	1.5664	1.5664	1547.12336	56807.738	43.5016	1.579
1490.0	7.5E-4	0.99925	6.51122	8.12811	-0.12094	34.34159	31.38755	1.83041	0.54632	1.73249E-10	97.79206	5.7888E-11	0.49642	5.55517	5.55517	1.5491	1.5491	1547.86746	56590.747	43.3982	3.086
1485.0	7.6E-4	0.99924	6.51519	8.12309	-0.18256	34.29708	31.31482	1.82946	0.54661	1.80505E-10	97.97758	6.03125E-11	0.49641	5.60156	5.60156	1.53191	1.53191	1548.60145	56374.269	43.2956	4.523
1480.0	7.7E-4	0.99923	6.51916	8.11817	-0.24303	34.2553	31.24235	1.82849	0.5469	1.8769E-10	98.16414	6.27131E-11	0.49642	5.64862	5.64862	1.51483	1.51483	1549.32266	56158.297	43.1944	5.893
1475.0	7.7E-4	0.99923	6.52312	8.11326	-0.30341	34.21348	31.16985	1.82752	0.54719	1.9479E-10	98.35065	6.50853E-11	0.49642	5.69634	5.69634	1.49785	1.49785	1550.0322	55942.826	43.0942	7.2
1470.0	7.8E-4	0.99922	6.52707	8.1083	-0.3644	34.16974	31.09716	1.82655	0.54748	2.01851E-10	98.53617	6.7445E-11	0.49641	5.74472	5.74472	1.48099	1.48099	1550.73078	55727.849	42.9954	8.446
1465.0	7.9E-4	0.99921	6.53102	8.10343	-0.42425	34.12875	31.02473	1.82556	0.54778	2.08845E-10	98.72275	6.97816E-11	0.49642	5.7938	5.7938	1.46423	1.46423	1551.4159	55513.362	42.8974	9.634
1460.0	7.9E-4	0.99921	6.53495	8.09848	-0.48507	34.08486	30.95202	1.82459	0.54807	2.15771E-10	98.90807	7.20959E-11	0.49641	5.84358	5.84358	1.44758	1.44758	1552.09012	55299.359	42.8006	10.766
1455.0	8.0E-4	0.9992	6.5389	8.09371	-0.5436	34.04683	30.87987	1.82358	0.54837	2.22518E-10	99.09579	7.435E-11	0.49642	5.8941	5.8941	1.43104	1.43104	1552.74895	55085.834	42.705	11.845
1450.0	8.0E-4	0.9992	6.54282	8.0888	-0.60392	34.0037	30.80719	1.82259	0.54867	2.29238E-10	99.28124	7.65957E-11	0.49642	5.94532	5.94532	1.4146	1.4146	1553.39757	54872.801	42.6066	12.874
1445.0	8.1E-4	0.99919	6.54675	8.08399	-0.66309	33.96338	30.73476	1.82158	0.54897	2.35894E-10	99.46766	7.88196E-11	0.49642	5.99729	5.99729	1.39828	1.39828	1554.03191	54660.286	42.503	13.854
1440.0	8.1E-4	0.99919	6.55067	8.07911	-0.72302	33.9207	30.66213	1.82058	0.54927	2.42421E-10	99.65314	8.10005E-11	0.49642	6.05001	6.05001	1.38206	1.38206	1554.65434	54448.28	42.4012	14.789
1435.0	8.2E-4	0.99918	6.55458	8.07433	-0.78174	33.88103	30.58973	1.81957	0.54958	2.48857E-10	99.83969	8.31507E-11	0.49642	6.10351	6.10351	1.36594	1.36594	1555.26204	54236.778	42.3004	15.68
1430.0	8.2E-4	0.99918	6.55849	8.06947	-0.8415	33.83822	30.51706	1.81856	0.54989	2.55202E-10	100.02496	8.5271E-11	0.49642	6.15779	6.15779	1.34994	1.34994	1555.85787	54025.775	42.2006	16.53
1425.0	8.3E-4	0.99917	6.56239	8.06472	-0.89984	33.79901	30.44468	1.81753	0.5502	2.61441E-10	100.21152	8.73553E-11	0.49642	6.21288	6.21288	1.33404	1.33404	1556.43834	53815.265	42.102	17.341
1420.0	8.3E-4	0.99917	6.56628	8.0599	-0.95913	33.7569	30.37201	1.81652	0.5505	2.67654E-10	100.39682	8.94314E-11	0.49642	6.26878	6.26878	1.31825	1.31825	1557.00651	53605.244	42.0042	18.114
1415.0	8.4E-4	0.99916	6.57017	8.05509	-1.01815	33.71523	30.2994	1.81549	0.55081	2.73743E-10	100.58227	9.14662E-11	0.49642	6.32552	6.32552	1.30257	1.30257	1557.56057	53395.706	41.9076	18.853
1410.0	8.4E-4	0.99916	6.57406	8.05037	-1.07616	33.67607	30.22698	1.81445	0.55113	2.79679E-10	100.76863	9.34493E-11	0.49642	6.38312	6.38312	1.28699	1.28699	1558.09935	53186.644	41.8124	19.559
1405.0	8.4E-4	0.99916	6.57793	8.0456	-1.13481	33.63484	30.15439	1.81342	0.55144	2.85651E-10	100.9541	9.54451E-11	0.49642	6.44157	6.44157	1.27153	1.27153	1558.62497	52978.05	41.7188	20.234
1400.0	8.5E-4	0.99915	6.5818	8.04083	-1.19338	33.59352	30.08173	1.81238	0.55176	2.91476E-10	101.13939	9.73914E-11	0.49642	6.50091	6.50091	1.25617	1.25617	1559.1363	52769.918	41.6264	20.88
1395.0	8.5E-4	0.99915	6.58567	8.03616	-1.25077	33.55523	30.00938	1.81132	0.55208	2.972E-10	101.32591	9.93038E-11	0.49642	6.56118	6.56118	1.24091	1.24091	1559.63167	52562.245	41.5346	21.499
1390.0	8.6E-4	0.99914	6.58953	8.03142	-1.30901	33.51425	29.93673	1.81028	0.5524	3.02949E-10	101.5112	1.01225E-10	0.49642	6.62234	6.62234	1.22576	1.22576	1560.11377	52355.024	41.4442	22.093
1385.0	8.6E-4	0.99914	6.59338	8.02671	-1.36698	33.47375	29.86413	1.80922	0.55272	3.08596E-10	101.69666	1.03112E-10	0.49642	6.68446	6.68446	1.21072	1.21072	1560.5809	52148.253	41.3542	22.664
1380.0	8.6E-4	0.99914	6.59724	8.02207	-1.42394	33.4358	29.79173	1.80815	0.55305	3.14238E-10	101.88302	1.04997E-10	0.49642	6.74754	6.74754	1.19579	1.19579	1561.03189	51941.925	41.2656	23.215
1375.0	8.7E-4	0.99913	6.60108	8.01738	-1.48158	33.39563	29.71913	1.80708	0.55338	3.19779E-10	102.06847	1.06848E-10	0.49642	6.8116	6.8116	1.18096	1.18096	1561.46901	51736.037	41.1776	23.747
1370.0	8.7E-4	0.99913	6.60492	8.01268	-1.53928	33.35499	29.64646	1.80602	0.5537	3.25409E-10	102.25371	1.08729E-10	0.49642	6.87667	6.87667	1.16623	1.16623	1561.89125	51530.583	41.0908	24.264
1365.0	8.7E-4	0.99913	6.60875	8.0081	-1.59565	33.31787	29.57409	1.80493	0.55404	3.30993E-10	102.44014	1.10595E-10	0.49642	6.94276	6.94276	1.15162	1.15162	1562.2965	51325.558	41.005	24.767
1360.0	8.8E-4	0.99912	6.61258	8.00344	-1.65292	33.27788	29.50144	1.80385	0.55437	3.36676E-10	102.62554	1.12494E-10	0.49642	7.00989	7.00989	1.13711	1.13711	1562.68785	51120.956	40.9204	25.26
1355.0	8.8E-4	0.99912	6.61639	7.9988	-1.7099	33.23843	29.42882	1.80277	0.5547	3.42428E-10	102.8109	1.14416E-10	0.49642	7.07807	7.07807	1.12271	1.12271	1563.06346	50916.771	40.837	25.747
1350.0	8.8E-4	0.99912	6.62022	7.99431	-1.76504	33.20401	29.35666	1.80165	0.55505	3.48214E-10	102.99856	1.16349E-10	0.49643	7.14742	7.14742	1.1084	1.1084	1563.42102	50712.997	40.7548	26.231
1345.0	8.9E-4	0.99911	6.62402	7.98969	-1.82185	33.16447	29.28399	1.80055	0.55538	3.54205E-10	103.18385	1.1835E-10	0.49642	7.21781	7.21781	1.09421	1.09421	1563.76547	50509.625	40.6744	26.72
1341.88	8.9E-4	0.99911	6.62639	7.98682	-1.85715	33.14002	29.23871	1.79987	0.5556	3.58001E-10	103.29941	1.19619E-10	0.49642	7.26226	7.26226	1.08542	1.08542	1563.97216	50383.058	40.6012	27.001
1340.0	0.02913	0.97087	6.63264	7.97931	-1.94943	32.91791	29.30603	1.79364	0.55753	3.60412E-5	102.37253	1.20768E-5	0.49217	7.27222	7.56927	1.08267	1.04018	1562.02236	50052.277	175.697	281.588
1335.0	0.099801	0.9002	6.64863	7.96013	-2.18513	32.35245	29.47307	1.77795	0.56245	0.00550971	100.14276	0.00185956	0.48146	7.29894	9.27176	1.07536	0.84655	1556.89172	49212.956	167.864	918.832
1330.0	0.1637	0.8363	6.66346	7.94241	-2.40285	31.83558	29.62108	1.76356	0.56703	0.0410481	98.16774	0.0139457	0.47171	7.32652	16.24977	1.06798	0.48152	1551.82951	48434.033	155.785	1496.076
1325.38	0.21941	0.78059	6.67674	7.92667	-2.59629	31.37729	29.74767	1.751	0.5711	0.13487	96.49126	0.0460861	0.46319	7.35343	34.04481	1.06101	0.22917	1547.04087	47731.391	 	2012.727
1325.0	0.22395	0.77605	6.67787	7.92524	-2.61378	31.33478	29.75749	1.75	0.57143	0.14656	96.35611	0.050108	0.46249	7.35556	36.27751	1.06045	0.21501	1546.63042	47672.416	152.323	2056.41
1322.87	0.24915	0.75085	6.68402	7.91796	-2.70333	31.1212	29.81346	1.74439	0.57327	0.22608	95.61737	0.0774976	0.45863	7.36906	51.6168	1.05709	0.15092	1544.32381	47342.166	 	2300.993
1320.26	0.28768	0.71232	6.69341	7.90688	-2.83939	30.78046	29.8746	1.73797	0.57538	0.32181	94.93236	0.11074	0.45307	7.38693	96.2171	1.05281	0.0808279	1541.08799	46815.051	 	2723.244
1320.0	0.29151	0.70849	6.69441	7.90567	-2.85426	30.7425	29.8806	1.73734	0.57559	0.33346	94.86366	0.11479	0.45251	7.38863	102.01855	1.0524	0.0762192	1540.76358	46762.368	182.01	2765.57
1315.0	0.36233	0.63767	6.71283	7.88401	-3.12046	30.069	29.99255	1.72542	0.57957	0.63636	93.64347	0.22062	0.4422	7.42479	274.63993	1.04398	0.0282237	1534.54987	45779.053	196.663	3548.39
1310.0	0.4233	0.5767	6.72916	7.86486	-3.35574	29.48272	30.08308	1.71482	0.58315	1.10213	92.66099	0.38449	0.43323	7.46186	571.00538	1.03553	0.0135322	1528.5558	44908.997	174.011	4218.34
1305.0	0.47613	0.52387	6.74374	7.84792	-3.5639	28.97324	30.15584	1.70528	0.58642	1.76739	91.86872	0.61997	0.42538	7.50019	1007.66135	1.02698	0.00764399	1522.76635	44132.207	155.358	4795.412
1300.0	0.5222	0.4778	6.75686	7.83261	-3.75207	28.51996	30.21288	1.69666	0.58939	2.65769	91.22927	0.93683	0.41845	7.53934	1593.74565	1.01841	0.00481768	1517.18031	43432.932	139.855	5295.355
1295.0	0.56261	0.43739	6.7687	7.81896	-3.91985	28.1248	30.25716	1.6888	0.59214	3.78493	90.7205	1.33996	0.41233	7.58007	2334.11208	1.00972	0.00327908	1511.7779	42798.545	126.877	5730.794
1290.0	0.59824	0.40176	6.77953	7.80645	-4.07352	27.76937	30.28983	1.6816	0.59467	5.14969	90.31833	1.8302	0.40687	7.6217	3231.161	1.001	0.00236118	1506.56121	42218.85	115.939	6111.922
1285.0	0.62981	0.37019	6.78945	7.7951	-4.21305	27.45421	30.31289	1.67494	0.59704	6.73989	90.00841	2.40369	0.40199	7.66447	4286.38829	0.99223	0.00177421	1501.51502	41685.551	106.66	6447.034
1280.0	0.6579	0.3421	6.79863	7.78457	-4.34239	27.16774	30.32718	1.66878	0.59924	8.53625	89.77558	3.0539	0.3976	7.70817	5502.23671	0.98344	0.00137772	1496.63959	41191.847	98.7408	6742.927
1275.0	0.683	0.317	6.80711	7.7749	-4.46123	26.91121	30.3338	1.66304	0.60131	10.51229	89.60982	3.77151	0.39364	7.7534	6881.33262	0.97456	0.00109806	1491.92089	40732.134	91.9426	7005.204
1270.0	0.70553	0.29447	6.81504	7.76587	-4.5722	26.67694	30.33378	1.65768	0.60325	12.63861	89.50103	4.54607	0.39006	7.79946	8427.86152	0.96567	8.93671E-4	1487.35778	40301.755	86.0758	7238.521
1265.0	0.72581	0.27419	6.82245	7.75744	-4.67574	26.46378	30.32802	1.65262	0.6051	14.88314	89.44202	5.36602	0.3868	7.84716	10147.46882	0.95669	7.39823E-4	1482.94171	39896.819	80.9872	7446.766
1260.0	0.74414	0.25586	6.82943	7.74957	-4.77247	26.27004	30.31758	1.64781	0.60687	17.21505	89.42696	6.2201	0.38382	7.89573	12047.62086	0.94772	6.21112E-4	1478.66519	39514.056	76.5526	7633.207
1255.0	0.76076	0.23924	6.83602	7.74211	-4.8642	26.0904	30.30256	1.64325	0.60855	19.60666	89.44882	7.09822	0.3811	7.9455	14137.08036	0.93871	5.27586E-4	1474.52818	39150.706	72.67	7800.602
1250.0	0.77586	0.22414	6.84229	7.73502	-4.95126	25.92389	30.28349	1.63891	0.61016	22.02947	89.50392	7.98984	0.37859	7.99618	16426.1783	0.92971	4.52577E-4	1470.5243	38804.425	69.2562	7951.293
1245.0	0.78965	0.21035	6.84824	7.72834	-5.03336	25.77165	30.26101	1.63474	0.61172	24.46273	89.5885	8.88722	0.37629	8.04851	18928.73158	0.92063	3.91453E-4	1466.64352	38473.229	66.2392	8087.263
1243.27	0.79409	0.20591	6.85022	7.72609	-5.06094	25.72134	30.25227	1.63335	0.61224	25.29532	89.62449	9.19471	0.37554	8.06702	19841.33386	0.91747	3.73022E-4	1465.32765	38362.269	 	8130.686
1243.27	0.79409	0.20591	6.85022	7.72609	-5.06094	25.72134	30.25227	1.63335	0.61224	25.29532	89.62449	9.19471	0.37554	8.06702	19841.33386	0.91747	3.73022E-4	1465.32765	38362.269	 	8130.686
1240.81	0.80942	0.19058	6.85503	7.72068	-5.12747	25.56311	30.27021	1.62974	0.6136	28.24995	89.53611	10.28853	0.37289	8.09965	22292.62218	0.9123	3.31467E-4	1461.4199	38081.782	 	8315.459
1240.0	0.81473	0.18527	6.85688	7.7186	-5.15302	25.49942	30.27975	1.62835	0.61412	29.34011	89.50776	10.69267	0.37197	8.11204	23183.66065	0.91041	3.18557E-4	1459.94586	37982.447	98.1564	8383.212
1235.0	0.84446	0.15554	6.86761	7.7065	-5.30167	25.1329	30.32747	1.62041	0.61713	36.05094	89.38416	13.18788	0.36682	8.18815	28961.78419	0.89897	2.54159E-4	1451.33392	37408.184	114.853	8763.05
1230.0	0.86803	0.13197	6.8767	7.69628	-5.42725	24.83689	30.35237	1.61372	0.61969	42.12569	89.36482	15.45693	0.36268	8.26638	34910.50693	0.88751	2.10152E-4	1443.44754	36915.87	98.4628	9061.344
1225.0	0.88703	0.11297	6.88458	7.68745	-5.53586	24.59274	30.36041	1.60792	0.62192	47.51199	89.42295	17.47669	0.3593	8.34668	41035.74466	0.87605	1.78189E-4	1436.20905	36484.15	86.344	9299.448
1220.0	0.90253	0.0974732	6.89154	7.67965	-5.6316	24.38788	30.35546	1.60282	0.6239	52.24219	89.54022	19.25638	0.35649	8.42962	47363.2181	0.86453	1.53868E-4	1429.55065	36103.699	76.0902	9486.685
1215.0	0.91533	0.084674	6.89779	7.67266	-5.7176	24.21276	30.34047	1.59824	0.62569	56.39187	89.70295	20.82214	0.35413	8.51441	53934.00372	0.85306	1.3467E-4	1423.4147	35754.011	69.9376	9643.557
1210.0	0.92601	0.0739858	6.90348	7.66628	-5.79597	24.06092	30.31757	1.59407	0.62732	60.0382	89.90129	22.2014	0.35213	8.60156	60791.04481	0.84158	1.19078E-4	1417.75049	35431.868	64.4286	9773.281
1205.0	0.93502	0.0649767	6.90873	7.66041	-5.86814	23.92794	30.28843	1.59023	0.62884	63.25649	90.12821	23.42134	0.3504	8.69112	67985.26906	0.8301	1.06118E-4	1412.51076	35124.025	61.5686	9889.101
1200.0	0.94268	0.0573181	6.91363	7.65491	-5.9356	23.80922	30.2542	1.58664	0.63026	66.11528	90.37774	24.50701	0.34891	8.78283	75570.49947	0.81865	9.5144E-5	1407.66015	34840.726	56.6598	9980.769
1195.0	0.94924	0.0507573	6.91825	7.64976	-5.99889	23.70319	30.21594	1.58326	0.63161	68.67013	90.64574	25.47881	0.34759	8.87736	83601.48683	0.80719	8.57123E-5	1403.15786	34571.75	53.7952	10058.506
1190.0	0.9549	0.0450957	6.92263	7.64488	-6.05895	23.6069	30.17435	1.58004	0.63289	70.96923	90.92882	26.35454	0.34643	8.97462	92139.74229	0.79572	7.75048E-5	1398.97633	34314.546	51.4408	10124.86
1185.0	0.95982	0.0401791	6.92682	7.6402	-6.11643	23.51832	30.12995	1.57696	0.63413	73.05163	91.22419	27.14871	0.3454	9.07453	101246.5629	0.78427	7.02924E-5	1395.09046	34076.689	47.5714	10172.253
1180.0	0.96412	0.0358845	6.93085	7.6357	-6.17172	23.43625	30.08326	1.57399	0.63533	74.95062	91.52975	27.87371	0.34447	9.1767	110990.5319	0.77288	6.39015E-5	1391.47534	33827.839	49.77	10231.025
1175.0	0.96789	0.0321118	6.93475	7.63136	-6.22507	23.35997	30.03464	1.57112	0.63649	76.69192	91.84399	28.53913	0.34363	9.28227	121441.3373	0.76146	5.82014E-5	1388.106	33605.871	44.3936	10263.297
1170.0	0.97122	0.028782	6.93854	7.62714	-6.27684	23.28829	29.98438	1.56832	0.63763	78.29838	92.16532	29.15354	0.34286	9.39059	132676.494	0.75008	5.3089E-5	1384.96582	33379.758	45.2226	10300.097
1165.0	0.97417	0.02583	6.94223	7.62303	-6.32742	23.22001	29.9327	1.56558	0.63874	79.78942	92.49252	29.72425	0.34216	9.50151	144779.1309	0.73875	4.84825E-5	1382.0417	33147.485	46.4546	10343.435
1160.0	0.9768	0.0232011	6.94585	7.61901	-6.37678	23.15526	29.87981	1.5629	0.63984	81.17883	92.82498	30.25641	0.34151	9.61591	157838.6505	0.72742	4.43165E-5	1379.31086	32930.425	43.412	10371.938
1155.0	0.97915	0.0208509	6.9494	7.61507	-6.42517	23.09325	29.82588	1.56026	0.64092	82.48078	93.16169	30.75538	0.34092	9.73338	171952.872	0.71614	4.0537E-5	1376.763	32728.947	40.2956	10385.235
1150.0	0.98126	0.0187433	6.95289	7.6112	-6.47275	23.03343	29.77106	1.55767	0.64199	83.70647	93.50203	31.22539	0.34036	9.85359	187227.4776	0.70493	3.70995E-5	1374.38778	32507.139	44.3616	10419.235
1145.0	0.98315	0.0168474	6.95633	7.60739	-6.51959	22.97562	29.71543	1.5551	0.64305	84.86416	93.8455	31.66955	0.33984	9.9775	203780.0112	0.69372	3.39662E-5	1372.17115	32300.054	41.417	10438.885
1140.0	0.98486	0.0151371	6.95973	7.60363	-6.56584	22.9193	29.65909	1.55256	0.6441	85.9627	94.19161	32.09123	0.33935	10.10427	221735.7325	0.68261	3.11057E-5	1370.10599	32095.624	40.886	10456.249
1135.23	0.98634	0.0136594	6.96293	7.60009	-6.60933	22.86725	29.60484	1.55016	0.6451	86.95997	94.52374	32.47419	0.33891	10.22887	240289.5426	0.67202	2.8607E-5	1368.26519	31902.897	 	10470.971
1135.23	0.98634	0.0136594	6.96293	7.60009	-6.60933	22.86724	29.60484	1.55016	0.6451	86.95997	94.52374	32.47419	0.33891	10.22887	240289.6921	0.67202	2.8607E-5	1368.26517	31915.928	 	10457.938
1135.0	0.98641	0.0135918	6.96308	7.59991	-6.61145	22.86471	29.60216	1.55004	0.64514	87.00712	94.54004	32.4923	0.33889	10.23492	241232.505	0.67151	2.84905E-5	1368.17809	31893.513	40.4222	10471.663
1130.0	0.98781	0.0121888	6.96641	7.59624	-6.65659	22.81127	29.54471	1.54754	0.64619	88.00536	94.89033	32.8758	0.33845	10.36857	262426.4207	0.6605	2.60966E-5	1366.38568	31693.431	40.0164	10485.416
1125.0	0.98909	0.0109145	6.9697	7.5926	-6.70129	22.75886	29.48679	1.54506	0.64723	88.96138	95.24223	33.24323	0.33804	10.50578	285487.5987	0.64955	2.3903E-5	1364.71783	31508.872	36.9118	10484.01
1122.26	0.98973	0.0102684	6.97149	7.59063	-6.72559	22.73067	29.45452	1.54372	0.64779	89.46815	95.43586	33.43805	0.33782	10.58278	298983.6685	0.64356	2.27793E-5	1363.84952	31387.32	 	10503.748
1122.26	0.98973	0.0102684	6.97149	7.59063	-6.72559	22.73067	29.45452	1.54372	0.64779	89.46815	95.43586	33.43805	0.33782	10.58278	298983.6685	0.64356	2.27793E-5	1363.84951	31387.32	 	10503.748
1120.0	0.99032	0.00968476	6.97304	7.58891	-6.74666	22.70363	29.42817	1.5426	0.64826	89.91143	95.59714	33.60849	0.33763	10.65295	310694.7384	0.63829	2.18852E-5	1363.17022	31297.085	42.3574	10510.195
1115.0	0.99151	0.00848817	6.97642	7.58515	-6.79289	22.64487	29.36951	1.54013	0.6493	90.86004	95.95495	33.97334	0.33723	10.81134	338276.6476	0.62668	2.00286E-5	1361.77371	31113.225	36.772	10508.815
1110.0	0.99258	0.00741525	6.97977	7.58143	-6.83855	22.58758	29.31044	1.53768	0.65033	91.76548	96.31354	34.32171	0.33684	10.97405	368325.0457	0.61516	1.83284E-5	1360.50861	30917.341	39.1768	10519.819
1105.0	0.99355	0.0064494	6.98308	7.57776	-6.88375	22.53142	29.25097	1.53523	0.65137	92.63336	96.67277	34.65573	0.33648	11.14012	401091.451	0.6038	1.67703E-5	1359.36681	30723.201	38.828	10529.438
1100.0	0.99442	0.00557714	6.98637	7.57412	-6.92845	22.47647	29.19121	1.53279	0.6524	93.46807	97.03244	34.97709	0.33613	11.31002	436861.5195	0.59257	1.53413E-5	1358.33752	30515.289	41.5824	10553.185
1095.0	0.99521	0.00478806	6.98963	7.57051	-6.97278	22.42236	29.13112	1.53036	0.65344	94.2739	97.39251	35.28742	0.3358	11.48435	475938.8136	0.58145	1.40304E-5	1357.4118	30339.426	35.1726	10545.238
1090.24	0.9959	0.00410407	6.99271	7.56711	-7.01458	22.37177	29.07376	1.52805	0.65443	95.01562	97.73516	35.57315	0.3355	11.65299	516491.7827	0.57105	1.28838E-5	1356.62336	30142.826	 	10567.336
1090.24	0.9959	0.00410407	6.99271	7.56711	-7.01458	22.37177	29.07376	1.52805	0.65443	95.01562	97.73516	35.57315	0.3355	11.65299	516491.6968	0.57105	1.28838E-5	1356.62336	30142.827	 	10567.336
1090.0	0.99593	0.00407075	6.99286	7.56694	-7.0167	22.36925	29.07082	1.52793	0.65448	95.05305	97.75277	35.58757	0.33548	11.66167	518668.4409	0.57052	1.28275E-5	1356.58476	30149.524	37.9804	10551.683
1085.0	0.99658	0.00341794	6.99607	7.56339	-7.06024	22.31699	29.01032	1.5255	0.65552	95.80934	98.11319	35.879	0.33517	11.84315	565429.2551	0.55972	1.17235E-5	1355.85108	29960.725	37.7598	10557.378
1081.92	0.99695	0.00304622	6.99804	7.56122	-7.08691	22.28511	28.97303	1.524	0.65617	96.26481	98.33531	36.05455	0.33499	11.95722	596432.2508	0.55312	1.10889E-5	1355.43831	29828.484	 	10576.965
1081.92	0.99695	0.00304622	6.99804	7.56122	-7.08691	22.28511	28.97303	1.524	0.65617	96.26482	98.33531	36.05455	0.33499	11.95722	596432.5522	0.55312	1.10889E-5	1355.43832	29844.937	 	10560.511
1080.0	0.99791	0.00209133	6.99944	7.55961	-7.10677	22.25336	28.95044	1.52303	0.65659	96.888	98.4659	36.29502	0.33473	11.92532	618719.6706	0.55381	1.06743E-5	1354.33917	29762.189	39.7072	10573.16
1079.29	0.99824	0.0017633	6.99995	7.55902	-7.11398	22.24214	28.94193	1.52267	0.65674	97.10766	98.51482	36.3798	0.33464	11.913	627155.4978	0.55409	1.05251E-5	1353.95002	29731.8	 	10577.489
