T (C)	Fraction solid (wt)-TOTAL	Fraction liquid (wt)-LIQUID	Density (g/(cm)^3)-TOTAL	Molar volume (cm^3)-TOTAL	Volume change (%)-  	Average expansion coeff. (10e-6 1/K)-  	Thermal conductivity (W/(m*K))-TOTAL	Electrical resistivity (10e-6 Ohm*m)-TOTAL	Electrical conductivity (10e6 1/(Ohm*m))-TOTAL	Young's modulus (GPa)-TOTAL	Bulk modulus (GPa)-TOTAL	Shear modulus(GPa)-TOTAL	Poisson's ratio-TOTAL	Liquid viscosity (mPa s)-  	Total viscosity (mPa s)-  	Liquid diffusivity (10e-9 (m^2)/s)-  	Total diffusivity (10e-9 (m^2)/s)-  	Surface Tension (mN/m)-  	Enthalpy (J/mole)-TOTAL	Specific heat (J/(mole K))-TOTAL	Latent heat (J/mole)-TOTAL
1500.0	0.0	1.0	6.94525	7.85756	0.0	26.33025	31.37283	1.84166	0.54299	0.0	105.59738	0.0	0.49975	6.69851	6.69851	1.29197	1.29197	1763.2272	64816.719	 	0.0
1495.0	0.0	1.0	6.94914	7.85317	-0.0558861	26.27831	31.29847	1.84083	0.54323	0.0	105.78373	0.0	0.49975	6.75688	6.75688	1.2772	1.2772	1765.0023	64595.017	44.3404	0.0
1490.0	0.0	1.0	6.95301	7.84879	-0.11162	26.22642	31.22411	1.84	0.54348	0.0	105.97007	0.0	0.49975	6.81608	6.81608	1.26253	1.26253	1766.77412	64373.83	44.2374	0.0
1485.0	0.0	1.0	6.95688	7.84442	-0.16719	26.17457	31.14976	1.83916	0.54373	0.0	106.15642	0.0	0.49975	6.87615	6.87615	1.24795	1.24795	1768.54261	64153.154	44.1352	0.0
1480.0	0.0	1.0	6.96075	7.84007	-0.22261	26.12276	31.0754	1.83832	0.54398	0.0	106.34276	0.0	0.49975	6.9371	6.9371	1.23347	1.23347	1770.30775	63932.986	44.0336	0.0
1475.0	0.0	1.0	6.96461	7.83573	-0.27787	26.071	31.00104	1.83747	0.54423	0.0	106.52911	0.0	0.49975	6.99894	6.99894	1.21908	1.21908	1772.06949	63713.322	43.9328	0.0
1470.0	0.0	1.0	6.96846	7.8314	-0.33298	26.01927	30.92668	1.83662	0.54448	0.0	106.71545	0.0	0.49975	7.06169	7.06169	1.20479	1.20479	1773.8278	63494.16	43.8324	0.0
1465.0	0.0	1.0	6.9723	7.82708	-0.38794	25.96759	30.85233	1.83576	0.54473	0.0	106.9018	0.0	0.49975	7.12537	7.12537	1.1906	1.1906	1775.58263	63275.496	43.7328	0.0
1460.0	0.0	1.0	6.97614	7.82277	-0.44273	25.91595	30.77797	1.83491	0.54499	0.0	107.08814	0.0	0.49975	7.18999	7.18999	1.17651	1.17651	1777.33395	63057.326	43.634	0.0
1455.0	0.0	1.0	6.97997	7.81848	-0.49737	25.86436	30.70361	1.83404	0.54524	0.0	107.27449	0.0	0.49975	7.25558	7.25558	1.16251	1.16251	1779.08171	62839.648	43.5356	0.0
1450.0	0.0	1.0	6.98379	7.8142	-0.55186	25.81281	30.62926	1.83318	0.5455	0.0	107.46083	0.0	0.49975	7.32215	7.32215	1.14861	1.14861	1780.82587	62622.483	43.433	0.0
1445.0	0.0	1.0	6.98761	7.80993	-0.60619	25.76131	30.5549	1.83231	0.54576	0.0	107.64718	0.0	0.49975	7.38973	7.38973	1.1348	1.1348	1782.56639	62405.866	43.3234	0.0
1441.9	0.0	1.0	6.98998	7.80729	-0.63982	25.72936	30.50877	1.83176	0.54592	0.0	107.76277	0.0	0.49975	7.43217	7.43217	1.12628	1.12628	1783.64424	62271.753	43.2395	0.012
1440.0	0.0690802	0.93092	7.00223	7.79351	-0.81514	25.30275	30.74264	1.81582	0.55072	0.00126518	105.16165	4.2466E-4	0.48964	7.44369	8.22632	1.12329	1.01643	1783.01461	61579.203	364.813	610.584
1435.0	0.22244	0.77756	7.03002	7.76279	-1.20614	24.36043	31.27054	1.77995	0.56181	0.13912	99.44693	0.047415	0.46705	7.47434	18.78508	1.11542	0.44381	1781.48273	60012.088	313.423	1962.161
1430.0	0.33963	0.66037	7.052	7.73858	-1.51417	23.63118	31.67763	1.75193	0.5708	0.77046	95.16559	0.26574	0.44962	7.50557	61.76795	1.10753	0.13458	1780.10214	58769.929	248.432	2989.315
1425.0	0.43136	0.56864	7.06989	7.7191	-1.76212	23.05645	31.99778	1.72931	0.57826	2.03848	91.90364	0.70985	0.43586	7.53707	149.78277	1.09966	0.0553351	1778.8528	57756.806	202.625	3787.963
1420.0	0.50465	0.49535	7.08479	7.7029	-1.96834	22.58892	32.25163	1.71065	0.58457	3.87558	89.38313	1.36007	0.42478	7.56884	282.68225	1.09182	0.0292337	1777.72318	56909.826	169.396	4420.997
1419.06	0.51649	0.48351	7.08725	7.70029	-2.00146	22.51572	32.29218	1.70755	0.58563	4.26395	88.98723	1.49825	0.42298	7.57502	311.64782	1.09033	0.0265019	1777.51777	56767.712	 	4522.923
1415.0	0.59077	0.40923	7.10118	7.68528	-2.1926	22.06973	32.45385	1.69497	0.58998	7.10035	87.6656	2.51364	0.41236	7.59665	606.2045	1.08461	0.0135919	1775.21814	55826.203	216.725	5291.196
1410.0	0.66116	0.33884	7.11502	7.67045	-2.38127	21.6424	32.59459	1.68265	0.5943	11.28809	86.5758	4.02513	0.4022	7.62358	1067.69466	1.07758	0.00769418	1772.65697	54891.223	186.996	6013.27
1405.0	0.71466	0.28534	7.12618	7.65864	-2.53163	21.31531	32.68839	1.67284	0.59778	15.85779	85.88723	5.68625	0.3944	7.65115	1598.55434	1.07051	0.00512378	1770.33637	54135.885	151.068	6556.22
1400.0	0.75624	0.24376	7.13545	7.64889	-2.6557	21.05701	32.74854	1.66479	0.60067	20.49287	85.46968	7.38078	0.38826	7.67931	2171.48387	1.06341	0.00376067	1768.22833	53506.635	125.85	6973.593
1395.0	0.7892	0.2108	7.14337	7.6406	-2.76121	20.84722	32.78399	1.65802	0.60313	24.98253	85.24259	9.02985	0.38333	7.7078	2770.12783	1.05631	0.00293915	1766.30946	52968.393	107.648	7300.466
1390.0	0.81583	0.18417	7.15028	7.63345	-2.85212	20.67574	32.80125	1.65219	0.60526	29.21736	85.15368	10.59137	0.3793	7.73726	3387.0931	1.04913	0.00239657	1764.55186	52496.9	94.2986	7561.095
1385.0	0.83774	0.16226	7.15647	7.62705	-2.93358	20.52882	32.80462	1.64705	0.60715	33.16752	85.16476	12.05274	0.37593	7.76696	4021.21646	1.04198	0.00201258	1762.9458	52074.854	84.4092	7772.781
1380.0	0.85603	0.14397	7.16211	7.62128	-3.007	20.4029	32.79733	1.64245	0.60885	36.8219	85.25297	13.40849	0.37308	7.79728	4672.47983	1.0348	0.00172684	1761.46952	51690.804	76.81	7946.968
1375.0	0.87148	0.12852	7.1673	7.616	-3.07421	20.29319	32.78155	1.63827	0.6104	40.189	85.40089	14.66071	0.37064	7.8285	5342.07796	1.02755	0.00150582	1760.11006	51336.482	70.8644	8091.924
1370.0	0.88467	0.11533	7.17216	7.6111	-3.13655	20.19614	32.75903	1.63442	0.61184	43.29218	85.59576	15.81724	0.36851	7.86031	6032.92251	1.02029	0.00132934	1758.85569	51005.791	66.1382	8213.741
1365.0	0.89605	0.10395	7.17675	7.6065	-3.19515	20.10873	32.73101	1.63084	0.61318	46.15557	85.82766	16.8864	0.36665	7.89266	6748.04009	1.01302	0.00118485	1757.69844	50694.157	62.3268	8316.992
1360.0	0.90592	0.0940791	7.18112	7.60213	-3.2508	20.02892	32.6984	1.62749	0.61444	48.80282	86.08999	17.87651	0.365	7.92552	7490.73511	1.00574	0.00106411	1756.63066	50398.086	59.2142	8405.166
1355.43	0.9138	0.0862049	7.18491	7.59835	-3.29885	19.9633	32.66534	1.62458	0.61555	51.03196	86.35112	18.71143	0.36366	7.95636	8192.85635	0.99904	9.70198E-4	1755.71818	50139.636	 	8474.039
1355.0	0.91473	0.0852657	7.18538	7.59788	-3.30485	19.95296	32.66292	1.62427	0.61566	51.2989	86.37068	18.81148	0.3635	7.95975	8269.28991	0.99835	9.60977E-4	1755.74208	50113.023	57.0126	8482.815
1350.0	0.92492	0.0750757	7.19061	7.59274	-3.37032	19.84436	32.63266	1.62078	0.61699	54.27998	86.61852	19.92981	0.36178	8.00199	9179.70521	0.99003	8.63012E-4	1756.03024	49811.896	60.2254	8577.011
1345.0	0.93362	0.0663824	7.19547	7.58799	-3.43066	19.74939	32.59759	1.61753	0.61823	56.97888	86.89889	20.94387	0.36028	8.04446	10119.08726	0.98177	7.80484E-4	1756.36073	49527.104	56.9584	8655.348
1340.0	0.9411	0.0588977	7.20003	7.58358	-3.48689	19.66534	32.55861	1.61446	0.6194	59.436	87.20505	21.86836	0.35895	8.08767	11093.31986	0.9735	7.09741E-4	1756.73002	49255.445	54.3318	8721.027
1335.0	0.9476	0.0524015	7.20435	7.57941	-3.53987	19.58988	32.51639	1.61154	0.62052	61.68633	87.53224	22.71609	0.35777	8.13124	12108.3271	0.96529	6.4823E-4	1757.13714	48994.485	52.192	8776.48
1330.0	0.95328	0.0467222	7.20846	7.57548	-3.58994	19.52215	32.47153	1.60875	0.6216	63.75813	87.87693	23.49739	0.35671	8.17556	13170.09906	0.95707	5.94117E-4	1757.57168	48742.341	50.4288	8823.584
1325.0	0.95827	0.0417269	7.21241	7.57172	-3.63778	19.46029	32.4244	1.60607	0.62264	65.67632	88.23602	24.22147	0.35575	8.22032	14284.74114	0.94889	5.46049E-4	1758.03648	48497.544	48.9594	8863.81
1320.0	0.96269	0.0373063	7.21622	7.56811	-3.68368	19.40352	32.37539	1.60346	0.62365	67.4603	88.60699	24.89549	0.35487	8.26589	15458.04978	0.94071	5.03024E-4	1758.52706	48258.925	47.7238	8898.321
1315.0	0.96662	0.0333752	7.2199	7.56464	-3.72789	19.35117	32.32475	1.60094	0.62463	69.12793	88.98839	25.52605	0.35407	8.31232	16696.68921	0.93251	4.64246E-4	1759.03856	48025.548	46.6754	8928.05
1310.0	0.97014	0.029862	7.22348	7.56127	-3.77075	19.30235	32.27271	1.59847	0.6256	70.69388	89.37846	26.11859	0.35333	8.35936	18007.31865	0.92435	4.29101E-4	1759.57172	47796.656	45.7784	8953.752
1305.0	0.97329	0.0267093	7.22698	7.558	-3.8124	19.25662	32.21948	1.59605	0.62655	72.17037	89.77592	26.67766	0.35264	8.4073	19396.54746	0.91618	3.9711E-4	1760.12344	47571.63	45.0052	8976.044
1300.0	0.97613	0.0238676	7.2304	7.5548	-3.8531	19.21334	32.16518	1.59368	0.62748	73.56826	90.17974	27.2073	0.352	8.45585	20871.95677	0.90803	3.67869E-4	1760.69621	47349.958	44.3344	8995.434
1295.0	0.9787	0.0212971	7.23375	7.55167	-3.89289	19.1724	32.10998	1.59135	0.6284	74.89659	90.58901	27.71087	0.35139	8.50539	22441.26516	0.89987	3.41057E-4	1761.28294	47131.215	43.7486	9012.345
1290.0	0.98104	0.0189637	7.23704	7.54861	-3.93188	19.13347	32.05398	1.58905	0.62931	76.16395	91.00324	28.1916	0.35083	8.55608	24113.02081	0.89169	3.16399E-4	1761.88138	46915.046	43.2338	9027.13
1285.0	0.98316	0.0168366	7.24029	7.5456	-3.97021	19.09618	31.99727	1.58677	0.63021	77.37658	91.42157	28.6518	0.35029	8.60754	25895.88084	0.88352	2.93674E-4	1762.49346	46701.151	42.779	9040.083
1280.0	0.98511	0.0148921	7.24349	7.54263	-4.00795	19.06032	31.93995	1.58452	0.63111	78.54138	91.84361	29.09407	0.34978	8.66014	27799.81952	0.87534	2.72683E-4	1763.11689	46489.276	42.375	9051.461
1275.0	0.98689	0.0131087	7.24665	7.53971	-4.04521	19.02564	31.88206	1.58228	0.632	79.66318	92.26875	29.52021	0.3493	8.7136	29834.98343	0.86717	2.53264E-4	1763.75278	46279.205	42.0142	9061.475
1270.0	0.98853	0.0114656	7.24978	7.53682	-4.08199	18.99208	31.82371	1.58007	0.63289	80.74716	92.6967	29.93216	0.34884	8.76837	32012.64599	0.85897	2.35274E-4	1764.39626	46070.751	41.6908	9070.308
1265.0	0.99005	0.00994549	7.25288	7.53395	-4.11841	18.95935	31.76491	1.57786	0.63377	81.79889	93.12717	30.33204	0.34839	8.82405	34345.65711	0.85078	2.18582E-4	1765.05139	45863.755	41.3992	9078.119
1260.0	0.99148	0.00851722	7.25596	7.53112	-4.15452	18.92731	31.70584	1.57566	0.63465	82.82805	93.55938	30.7235	0.34796	8.88153	36849.18712	0.84253	2.03069E-4	1765.70843	45658.082	41.1346	9085.039
1255.0	0.99283	0.00717052	7.25904	7.5283	-4.19041	18.89565	31.64648	1.57347	0.63554	83.83741	93.99325	31.1076	0.34754	8.93965	39538.05386	0.83432	1.88642E-4	1766.37857	45453.626	40.8912	9091.171
1250.0	0.9941	0.00589818	7.2621	7.5255	-4.22605	18.86449	31.58685	1.57128	0.63642	84.82903	94.42873	31.4851	0.34713	8.99961	42428.04649	0.82605	1.75217E-4	1767.04873	45250.293	40.6666	9096.608
1245.0	0.99531	0.00469091	7.26515	7.52271	-4.2615	18.83368	31.527	1.5691	0.63731	85.80491	94.86556	31.85676	0.34673	9.06078	45535.97878	0.81778	1.62722E-4	1767.72465	45047.999	40.4588	9101.431
1244.4	0.99551	0.004489	7.26556	7.52236	-4.26598	18.82921	31.51993	1.56883	0.63742	85.94493	94.91763	31.91011	0.34667	9.06813	45936.3257	0.81679	1.61241E-4	1767.80744	45023.442	 	9102.417
1240.0	0.99733	0.00267053	7.2685	7.51926	-4.30547	18.77648	31.46894	1.56681	0.63824	87.16152	95.3147	32.37473	0.34614	9.2703	49072.52416	0.79666	1.50498E-4	1766.54648	44826.201	44.3596	9126.189
1235.0	0.99885	0.00114725	7.27172	7.51586	-4.34866	18.72122	31.41051	1.56454	0.63916	88.33605	95.76388	32.82335	0.34563	9.50218	52787.14475	0.77465	1.39445E-4	1765.28548	44610.807	43.0788	9144.973
1230.0	1.0	0.0	7.27485	7.51257	-4.39061	18.66935	31.35164	1.56228	0.64009	89.36549	96.21185	33.2166	0.34519	 	56712.2318	 	1.29364E-4	 	44401.496	41.8622	9158.106
1225.0	1.0	0.0	7.27719	7.51015	-4.42136	18.65177	31.28961	1.56017	0.64095	89.89485	96.65533	33.41839	0.34499	 	60638.48348	 	1.20585E-4	 	44170.484	46.2024	 
1220.0	1.0	0.0	7.27952	7.50774	-4.45206	18.6342	31.22758	1.55806	0.64183	90.42547	97.099	33.62071	0.34479	 	64867.26174	 	1.12348E-4	 	43979.312	38.2344	 
1215.0	1.0	0.0	7.28186	7.50533	-4.48271	18.61664	31.16554	1.55593	0.6427	90.95733	97.54284	33.82355	0.34459	 	69424.15254	 	1.04622E-4	 	43788.378	38.1868	 
1210.0	1.0	0.0	7.28419	7.50292	-4.51331	18.59908	31.1035	1.55379	0.64359	91.49038	97.98681	34.0269	0.34438	 	74337.09277	 	9.73792E-5	 	43597.698	38.136	 
1205.0	1.0	0.0	7.28653	7.50052	-4.54386	18.58152	31.04147	1.55165	0.64447	92.02462	98.43089	34.23075	0.34418	 	79636.60309	 	9.05926E-5	 	43407.274	38.0848	 
1200.0	1.0	0.0	7.28885	7.49813	-4.57437	18.56397	30.97943	1.5495	0.64537	92.56001	98.87505	34.43509	0.34398	 	85356.04541	 	8.42363E-5	 	43217.107	38.0334	 
1195.0	1.0	0.0	7.29118	7.49573	-4.60483	18.54642	30.91739	1.54734	0.64627	93.09653	99.31926	34.63991	0.34378	 	91531.9079	 	7.82861E-5	 	43027.195	37.9824	 
1190.0	1.0	0.0	7.29351	7.49334	-4.63523	18.52888	30.85534	1.54517	0.64718	93.63415	99.7635	34.8452	0.34357	 	98204.12064	 	7.27187E-5	 	42837.537	37.9316	 
1185.0	1.0	0.0	7.29583	7.49096	-4.66559	18.51134	30.7933	1.54299	0.64809	94.17285	100.20773	35.05096	0.34337	 	105416.4053	 	6.7512E-5	 	42648.13	37.8814	 
1180.0	1.0	0.0	7.29815	7.48858	-4.6959	18.4938	30.73125	1.54081	0.64901	94.7126	100.65194	35.25716	0.34317	 	113216.6629	 	6.26451E-5	 	42458.974	37.8312	 
1175.0	1.0	0.0	7.30047	7.4862	-4.72617	18.47627	30.66921	1.53861	0.64994	95.25338	101.0961	35.46382	0.34297	 	121657.4041	 	5.80981E-5	 	42270.067	37.7814	 
1170.0	1.0	0.0	7.30278	7.48383	-4.75638	18.45875	30.60716	1.53641	0.65087	95.79517	101.54018	35.67091	0.34276	 	130796.2266	 	5.38521E-5	 	42081.407	37.732	 
1165.0	1.0	0.0	7.3051	7.48145	-4.78655	18.44123	30.54511	1.53419	0.65181	96.33793	101.98415	35.87843	0.34256	 	140696.3461	 	4.98894E-5	 	41892.993	37.6828	 
1160.0	1.0	0.0	7.30741	7.47909	-4.81666	18.42371	30.48306	1.53197	0.65275	96.88165	102.42799	36.08636	0.34236	 	151427.1854	 	4.61928E-5	 	41704.824	37.6338	 
1155.0	1.0	0.0	7.30972	7.47673	-4.84673	18.4062	30.421	1.52974	0.65371	97.4263	102.87167	36.29471	0.34216	 	163065.0311	 	4.27464E-5	 	41516.896	37.5856	 
1150.0	1.0	0.0	7.31203	7.47437	-4.87675	18.38869	30.35895	1.5275	0.65466	97.97185	103.31518	36.50345	0.34195	 	175693.7633	 	3.95349E-5	 	41329.21	37.5372	 
1145.0	1.0	0.0	7.31433	7.47201	-4.90673	18.37119	30.29689	1.52525	0.65563	98.51829	103.75847	36.71259	0.34175	 	189405.6688	 	3.6544E-5	 	41141.762	37.4896	 
1140.0	1.0	0.0	7.31663	7.46966	-4.93665	18.35369	30.23484	1.52299	0.6566	99.06558	104.20154	36.92211	0.34155	 	204302.3478	 	3.37599E-5	 	40954.552	37.442	 
1135.0	1.0	0.0	7.31893	7.46731	-4.96652	18.33619	30.17278	1.52073	0.65758	99.6137	104.64435	37.132	0.34135	 	220495.7241	 	3.11699E-5	 	40767.578	37.3948	 
1130.0	1.0	0.0	7.32123	7.46497	-4.99635	18.3187	30.11072	1.51845	0.65857	100.16264	105.08688	37.34226	0.34114	 	238109.1739	 	2.87617E-5	 	40580.837	37.3482	 
1125.0	1.0	0.0	7.32353	7.46263	-5.02613	18.30122	30.04865	1.51617	0.65956	100.71236	105.52911	37.55288	0.34094	 	257278.7853	 	2.65238E-5	 	40394.329	37.3016	 
1120.0	1.0	0.0	7.32582	7.46029	-5.05586	18.28374	29.98659	1.51387	0.66056	101.26284	105.97101	37.76384	0.34074	 	278154.7663	 	2.44455E-5	 	40208.05	37.2558	 
1115.0	1.0	0.0	7.32811	7.45796	-5.08554	18.26626	29.92452	1.51157	0.66157	101.81406	106.41256	37.97514	0.34054	 	300903.0197	 	2.25163E-5	 	40021.999	37.2102	 
1110.0	1.0	0.0	7.3304	7.45563	-5.11518	18.24879	29.86246	1.50925	0.66258	102.36599	106.85374	38.18677	0.34033	 	325706.9053	 	2.07266E-5	 	39836.175	37.1648	 
1105.0	1.0	0.0	7.33269	7.45331	-5.14476	18.23132	29.80039	1.50693	0.6636	102.91862	107.29452	38.39873	0.34013	 	352769.2137	 	1.90674E-5	 	39650.574	37.1202	 
1100.0	1.0	0.0	7.33497	7.45099	-5.1743	18.21386	29.73832	1.50459	0.66463	103.47191	107.73488	38.61099	0.33993	 	382314.3788	 	1.75301E-5	 	39465.196	37.0756	 
1095.0	1.0	0.0	7.33725	7.44867	-5.20379	18.1964	29.67624	1.50225	0.66567	104.02584	108.17479	38.82356	0.33973	 	414590.9585	 	1.61065E-5	 	39280.038	37.0316	 
1090.0	1.0	0.0	7.33953	7.44636	-5.23323	18.17895	29.61417	1.4999	0.66671	104.5804	108.61424	39.03643	0.33952	 	449874.4204	 	1.4789E-5	 	39095.098	36.988	 
1085.0	1.0	0.0	7.34181	7.44405	-5.26262	18.1615	29.55209	1.49754	0.66776	105.13555	109.05321	39.24958	0.33932	 	488470.2695	 	1.35705E-5	 	38910.373	36.945	 
1080.0	1.0	0.0	7.34408	7.44174	-5.29197	18.14405	29.49002	1.49516	0.66882	105.69128	109.49166	39.46301	0.33912	 	530717.5656	 	1.24443E-5	 	38725.862	36.9022	 
1075.0	1.0	0.0	7.34635	7.43944	-5.32126	18.12661	29.42794	1.49278	0.66989	106.24755	109.92958	39.67671	0.33892	 	576992.879	 	1.14039E-5	 	38541.562	36.86	 
1070.0	1.0	0.0	7.34862	7.43714	-5.35051	18.10917	29.36585	1.49039	0.67097	106.80436	110.36695	39.89068	0.33871	 	627714.7451	 	1.04436E-5	 	38357.471	36.8182	 
1065.0	1.0	0.0	7.35089	7.43485	-5.37971	18.09174	29.30377	1.48799	0.67205	107.36167	110.80374	40.1049	0.33851	 	683348.6833	 	9.55761E-6	 	38173.587	36.7768	 
1060.0	1.0	0.0	7.35316	7.43256	-5.40886	18.07432	29.24169	1.48557	0.67314	107.91946	111.23994	40.31936	0.33831	 	744412.8557	 	8.74081E-6	 	37989.907	36.736	 
1055.0	1.0	0.0	7.35542	7.43027	-5.43797	18.05689	29.1796	1.48315	0.67424	108.47771	111.67552	40.53406	0.33811	 	811484.4546	 	7.98829E-6	 	37806.428	36.6958	 
1050.0	1.0	0.0	7.35768	7.42799	-5.46703	18.03947	29.11751	1.48072	0.67535	109.0364	112.11046	40.74898	0.3379	 	885206.9153	 	7.29543E-6	 	37623.149	36.6558	 
1045.0	1.0	0.0	7.35994	7.42571	-5.49603	18.02206	29.05542	1.47828	0.67646	109.5955	112.54474	40.96413	0.3377	 	966298.07	 	6.65795E-6	 	37440.066	36.6166	 
1040.0	1.0	0.0	7.3622	7.42343	-5.52499	18.00465	28.99333	1.47582	0.67759	110.15499	112.97834	41.17949	0.3375	 	1055559.372	 	6.07181E-6	 	37257.177	36.5778	 
1035.0	1.0	0.0	7.36445	7.42116	-5.55391	17.98724	28.93124	1.47336	0.67872	110.71485	113.41124	41.39505	0.3373	 	1153886.341	 	5.53326E-6	 	37074.479	36.5396	 
1030.0	1.0	0.0	7.3667	7.41889	-5.58277	17.96984	28.86914	1.47088	0.67986	111.27506	113.84342	41.6108	0.33709	 	1262280.395	 	5.03878E-6	 	36891.969	36.502	 
1025.0	1.0	0.0	7.36895	7.41663	-5.61159	17.95245	28.80704	1.4684	0.68101	111.83559	114.27485	41.82674	0.33689	 	1381862.275	 	4.58508E-6	 	36709.645	36.4648	 
1020.0	1.0	0.0	7.3712	7.41437	-5.64035	17.93506	28.74494	1.4659	0.68217	112.39642	114.70553	42.04286	0.33669	 	1513887.284	 	4.1691E-6	 	36527.503	36.4284	 
1015.0	1.0	0.0	7.37344	7.41211	-5.66907	17.91767	28.68284	1.4634	0.68334	112.95753	115.13542	42.25915	0.33649	 	1659762.589	 	3.78798E-6	 	36345.541	36.3924	 
1010.0	1.0	0.0	7.37568	7.40986	-5.69775	17.90029	28.62074	1.46088	0.68452	113.5189	115.56451	42.47561	0.33628	 	1821066.915	 	3.43905E-6	 	36163.756	36.357	 
1005.0	1.0	0.0	7.37792	7.40761	-5.72637	17.88291	28.55863	1.45835	0.68571	114.08051	115.99279	42.69221	0.33608	 	1999572.938	 	3.11983E-6	 	35982.143	36.3226	 
1000.0	1.0	0.0	7.38016	7.40536	-5.75495	17.86553	28.49653	1.45581	0.6869	114.64233	116.42022	42.90896	0.33588	 	2197272.812	 	2.82802E-6	 	35800.701	36.2884	 
995.0	1.0	0.0	7.38239	7.40312	-5.78348	17.84816	28.43442	1.45326	0.68811	115.20433	116.84679	43.12585	0.33568	 	2416407.257	 	2.56146E-6	 	35619.426	36.255	 
990.0	1.0	0.0	7.38463	7.40088	-5.81196	17.8308	28.37231	1.4507	0.68932	115.76651	117.27249	43.34287	0.33547	 	2659498.772	 	2.31815E-6	 	35438.314	36.2224	 
985.0	1.0	0.0	7.38686	7.39865	-5.84039	17.81344	28.31019	1.44813	0.69055	116.32884	117.69729	43.56001	0.33527	 	2929389.563	 	2.09624E-6	 	35257.361	36.1906	 
980.0	1.0	0.0	7.38908	7.39642	-5.86878	17.79608	28.24808	1.44555	0.69178	116.89129	118.12117	43.77726	0.33507	 	3229284.907	 	1.89401E-6	 	35076.565	36.1592	 
975.0	1.0	0.0	7.39131	7.39419	-5.89711	17.77873	28.18596	1.44295	0.69302	117.45384	118.54412	43.99461	0.33487	 	3562802.788	 	1.70986E-6	 	34895.922	36.1286	 
970.0	1.0	0.0	7.39353	7.39197	-5.9254	17.76138	28.12385	1.44035	0.69428	118.01648	118.96612	44.21206	0.33466	 	3934030.751	 	1.54231E-6	 	34715.427	36.099	 
965.0	1.0	0.0	7.39575	7.38975	-5.95365	17.74404	28.06173	1.43773	0.69554	118.57917	119.38714	44.4296	0.33446	 	4347591.093	 	1.38999E-6	 	34535.076	36.0702	 
