T (C)	Fraction solid (wt)-TOTAL	Fraction liquid (wt)-LIQUID	Density (g/(cm)^3)-TOTAL	Molar volume (cm^3)-TOTAL	Volume change (%)-  	Average expansion coeff. (10e-6 1/K)-  	Thermal conductivity (W/(m*K))-TOTAL	Electrical resistivity (10e-6 Ohm*m)-TOTAL	Electrical conductivity (10e6 1/(Ohm*m))-TOTAL	Young's modulus (GPa)-TOTAL	Bulk modulus (GPa)-TOTAL	Shear modulus(GPa)-TOTAL	Poisson's ratio-TOTAL	Liquid viscosity (mPa s)-  	Total viscosity (mPa s)-  	Liquid diffusivity (10e-9 (m^2)/s)-  	Total diffusivity (10e-9 (m^2)/s)-  	Surface Tension (mN/m)-  	Enthalpy (J/mole)-TOTAL	Specific heat (J/(mole K))-TOTAL	Latent heat (J/mole)-TOTAL
1500.0	0.0	1.0	6.96987	7.87994	0.0	28.81481	32.11649	1.79902	0.55586	0.0	105.65288	0.0	0.49974	6.64643	6.64643	1.3021	1.3021	1648.76754	64655.721	 	0.0
1495.0	0.0	1.0	6.97376	7.87554	-0.055808	28.77014	32.04165	1.79813	0.55613	0.0	105.84044	0.0	0.49974	6.70457	6.70457	1.28717	1.28717	1649.49837	64435.239	44.0964	0.0
1490.0	0.0	1.0	6.97764	7.87115	-0.11146	28.72556	31.96679	1.79725	0.55641	0.0	106.028	0.0	0.49974	6.76354	6.76354	1.27234	1.27234	1650.21434	64215.247	43.9984	0.0
1485.0	0.0	1.0	6.98152	7.86678	-0.16696	28.68107	31.89193	1.79636	0.55668	0.0	106.21557	0.0	0.49974	6.82338	6.82338	1.2576	1.2576	1650.91529	63995.741	43.9012	0.0
1480.0	0.0	1.0	6.98539	7.86242	-0.2223	28.63668	31.81705	1.79546	0.55696	0.0	106.40313	0.0	0.49974	6.88409	6.88409	1.24297	1.24297	1651.60105	63776.719	43.8044	0.0
1475.0	0.0	1.0	6.98926	7.85807	-0.27749	28.59238	31.74217	1.79457	0.55724	0.0	106.59069	0.0	0.49974	6.94569	6.94569	1.22843	1.22843	1652.27145	63558.177	43.7084	0.0
1470.0	0.0	1.0	6.99312	7.85373	-0.33252	28.54818	31.66729	1.79367	0.55752	0.0	106.77825	0.0	0.49974	7.00821	7.00821	1.21399	1.21399	1652.92632	63340.113	43.6128	0.0
1465.0	0.0	1.0	6.99697	7.84941	-0.3874	28.50408	31.59239	1.79276	0.5578	0.0	106.96581	0.0	0.49974	7.07165	7.07165	1.19965	1.19965	1653.5655	63122.522	43.5182	0.0
1460.0	0.0	1.0	7.00082	7.8451	-0.44212	28.46007	31.51749	1.79185	0.55808	0.0	107.15338	0.0	0.49974	7.13603	7.13603	1.1854	1.1854	1654.18881	62905.403	43.4238	0.0
1455.0	0.0	1.0	7.00466	7.8408	-0.49669	28.41617	31.44258	1.79094	0.55837	0.0	107.34094	0.0	0.49974	7.20138	7.20138	1.17126	1.17126	1654.79607	62688.752	43.3302	0.0
1450.0	0.0	1.0	7.00849	7.83651	-0.5511	28.37237	31.36766	1.79002	0.55865	0.0	107.5285	0.0	0.49974	7.26771	7.26771	1.15721	1.15721	1655.38712	62472.596	43.2312	0.0
1445.0	0.0	1.0	7.01232	7.83223	-0.60536	28.32867	31.29273	1.7891	0.55894	0.0	107.71606	0.0	0.49974	7.33504	7.33504	1.14326	1.14326	1655.96178	62256.981	43.123	0.0
1440.0	0.0	1.0	7.01613	7.82797	-0.65946	28.28507	31.2178	1.78818	0.55923	0.0	107.90362	0.0	0.49974	7.4034	7.4034	1.12941	1.12941	1656.51988	62041.899	43.0164	0.0
1435.0	0.0	1.0	7.01995	7.82372	-0.71341	28.24158	31.14285	1.78725	0.55952	0.0	108.09118	0.0	0.49974	7.4728	7.4728	1.11565	1.11565	1657.06123	61827.346	42.9106	0.0
1430.0	0.0	1.0	7.02375	7.81948	-0.7672	28.19819	31.0679	1.78632	0.55981	0.0	108.27875	0.0	0.49974	7.54326	7.54326	1.102	1.102	1657.58567	61613.319	42.8054	0.0
1425.0	0.0	1.0	7.02755	7.81525	-0.82083	28.15491	30.99294	1.78538	0.5601	0.0	108.46631	0.0	0.49974	7.61481	7.61481	1.08844	1.08844	1658.093	61399.815	42.7008	0.0
1420.0	0.0	1.0	7.03134	7.81104	-0.87432	28.11173	30.91798	1.78444	0.5604	0.0	108.65387	0.0	0.49974	7.68747	7.68747	1.07498	1.07498	1658.58306	61186.829	42.5972	0.0
1415.0	0.0	1.0	7.03513	7.80684	-0.92764	28.06867	30.843	1.7835	0.5607	0.0	108.84143	0.0	0.49974	7.76125	7.76125	1.06161	1.06161	1659.05566	60974.359	42.494	0.0
1410.0	0.0	1.0	7.0389	7.80265	-0.98081	28.02571	30.76802	1.78255	0.561	0.0	109.02899	0.0	0.49974	7.83619	7.83619	1.04835	1.04835	1659.51063	60762.4	42.3918	0.0
1405.0	0.0	1.0	7.04268	7.79847	-1.03383	27.98287	30.69303	1.78159	0.5613	0.0	109.21656	0.0	0.49974	7.9123	7.9123	1.03518	1.03518	1659.94777	60550.949	42.2902	0.0
1404.69	0.0	1.0	7.04291	7.79821	-1.03708	27.98024	30.68842	1.78154	0.56131	0.0	109.22808	0.0	0.49974	7.91702	7.91702	1.03437	1.03437	1659.97405	60537.971	42.2433	0.0030
1400.0	0.11515	0.88485	7.06269	7.77641	-1.31383	27.31929	30.86914	1.76615	0.5662	0.0133551	108.29129	0.00449944	0.48409	7.97991	11.44157	1.02335	0.71373	1654.90047	59062.046	314.51	1277.952
1395.0	0.21621	0.78379	7.08053	7.75675	-1.56326	26.73471	31.02159	1.75222	0.5707	0.16845	107.51791	0.0572868	0.4702	8.04829	39.11033	1.01162	0.20818	1649.73635	57737.039	265.001	2392.515
1390.0	0.29988	0.70012	7.09567	7.74024	-1.77279	26.25575	31.14169	1.74023	0.57464	0.63153	106.92995	0.21649	0.45859	8.1186	123.47508	0.99985	0.0657414	1644.7856	56610.68	225.272	3308.925
1385.0	0.37	0.63	7.10883	7.7259	-1.95477	25.84938	31.23537	1.7298	0.5781	1.48078	106.48558	0.51105	0.44876	8.19013	286.97126	0.98814	0.0282015	1640.03066	55638.826	194.371	4071.327
1380.98	0.41796	0.58204	7.11813	7.71584	-2.08242	25.57225	31.294	1.72237	0.5806	2.43201	106.2195	0.84328	0.44199	8.24861	481.26575	0.97876	0.0167753	1636.32025	54952.482	 	4589.465
1380.0	0.42979	0.57021	7.12043	7.71331	-2.11462	25.50138	31.31608	1.72014	0.58135	2.64886	106.07572	0.91957	0.44028	8.26164	540.45773	0.97664	0.0149292	1635.21799	54791.4	169.485	4709.791
1375.0	0.48536	0.51464	7.13137	7.7015	-2.26446	25.17868	31.41594	1.70948	0.58497	3.88978	105.45075	1.35796	0.43221	8.32993	908.08957	0.9657	0.00885839	1629.76935	54018.806	154.519	5273.912
1370.0	0.53253	0.46747	7.14108	7.69105	-2.39703	24.90184	31.4936	1.70009	0.5882	5.27343	104.98591	1.84992	0.42531	8.39948	1373.18182	0.9548	0.00584031	1624.53351	53335.063	136.749	5749.667
1365.0	0.57295	0.42705	7.14976	7.68167	-2.5161	24.6608	31.55114	1.69183	0.59108	6.75735	104.6466	2.38044	0.41935	8.47055	1930.95213	0.94391	0.00414065	1619.48889	52722.406	122.531	6154.821
1360.0	0.60792	0.39208	7.15764	7.67322	-2.62335	24.45122	31.59314	1.68442	0.59368	8.30865	104.40943	2.93769	0.41415	8.54284	2577.09449	0.93306	0.00309302	1614.61348	52167.355	111.01	6502.846
1355.0	0.63841	0.36159	7.16485	7.66549	-2.72146	24.26589	31.62197	1.67773	0.59604	9.90313	104.25387	3.51281	0.40958	8.61667	3307.98146	0.92224	0.00240225	1609.89143	51659.532	101.565	6804.12
1350.0	0.66518	0.33482	7.17147	7.65844	-2.81092	24.1037	31.64008	1.67162	0.59822	11.5248	104.16572	4.09982	0.40553	8.69251	4122.30813	0.91138	0.00192179	1605.30375	51190.841	93.7382	7066.737
1345.0	0.68885	0.31115	7.17767	7.6518	-2.89511	23.95531	31.6488	1.66602	0.60023	13.16214	104.13207	4.69435	0.40191	8.76908	5018.9274	0.90064	0.0015736	1600.84452	50754.884	87.1914	7297.09
1340.0	0.70991	0.29009	7.18345	7.64565	-2.97314	23.82339	31.64987	1.66081	0.60211	14.81006	104.14474	5.29434	0.39867	8.84768	5999.66148	0.88988	0.0013123	1596.49464	50346.553	81.6662	7500.285
1335.0	0.72873	0.27127	7.1889	7.63985	-3.04676	23.70309	31.64412	1.65597	0.60388	16.46404	104.19561	5.89796	0.39574	8.92782	7065.99405	0.87916	0.00111081	1592.24735	49961.726	76.9654	7680.441
1330.0	0.74565	0.25435	7.19408	7.63434	-3.11668	23.59253	31.63268	1.65141	0.60554	18.12366	104.2789	6.50487	0.39308	9.00922	8221.55704	0.86851	9.51715E-4	1588.09346	49597.046	72.936	7840.913
1325.0	0.76092	0.23908	7.19901	7.62911	-3.18306	23.49139	31.61618	1.64712	0.60712	19.78709	104.3899	7.11427	0.39066	9.09223	9470.11229	0.85789	8.23662E-4	1584.02311	49249.755	69.4582	7984.456
1324.93	0.76114	0.23886	7.19908	7.62903	-3.18411	23.48966	31.61595	1.64706	0.60714	19.8126	104.3914	7.12363	0.39063	9.0935	9489.66787	0.85774	8.21927E-4	1583.96379	49244.739	 	7986.493
1320.0	0.79698	0.20302	7.20726	7.62036	-3.2941	23.25983	31.71268	1.63697	0.61088	23.76196	104.22567	8.57853	0.38497	9.19189	12000.51163	0.84594	6.47953E-4	1575.52787	48646.961	120.559	8383.958
1315.0	0.82558	0.17442	7.21435	7.61285	-3.38947	23.07213	31.77691	1.62854	0.61405	28.31769	104.18049	10.25708	0.3804	9.29407	14599.30476	0.83401	5.30941E-4	1567.5734	48130.165	103.359	8697.918
1310.0	0.84831	0.15169	7.22056	7.60626	-3.4731	22.91728	31.81514	1.62146	0.61673	33.25631	104.22517	12.07812	0.37672	9.39774	17237.1674	0.82221	4.48273E-4	1560.19402	47681.035	89.826	8944.663
1309.11	0.85179	0.14821	7.22158	7.60518	-3.48676	22.89327	31.8194	1.62033	0.61716	34.13954	104.24118	12.40403	0.37615	9.4166	17706.88394	0.8201	4.36135E-4	1558.92263	47607.436	 	8982.108
1305.0	0.87065	0.12935	7.22768	7.59872	-3.56878	22.72586	31.85183	1.61448	0.6194	39.60106	104.27687	14.42045	0.37309	9.52806	20263.19219	0.80841	3.80126E-4	1552.52757	47230.248	90.1574	9193.513
1300.0	0.889	0.111	7.23412	7.59189	-3.65541	22.55963	31.8714	1.60837	0.62175	46.03319	104.38974	16.79968	0.37006	9.66679	23376.44103	0.79428	3.28457E-4	1545.33642	46825.732	80.9032	9396.539
1295.0	0.90344	0.0965644	7.23974	7.58593	-3.73101	22.42474	31.87215	1.60322	0.62374	51.81433	104.55843	18.94304	0.36764	9.80775	26499.20988	0.78038	2.88829E-4	1538.74366	46467.798	71.5868	9553.424
1290.0	0.91496	0.0850438	7.24476	7.58062	-3.79841	22.31312	31.85956	1.59874	0.62549	56.82626	104.76699	20.80554	0.36565	9.95117	29666.2813	0.76668	2.57172E-4	1532.68335	46144.28	64.7036	9676.337
1285.0	0.9243	0.0756981	7.24931	7.57579	-3.85977	22.21863	31.83686	1.59477	0.62705	61.105	105.00425	22.39916	0.364	10.09687	32911.3945	0.7532	2.31073E-4	1527.09348	45846.575	59.541	9773.875
1280.0	0.93199	0.0680088	7.25353	7.57133	-3.91632	22.13779	31.80653	1.59116	0.62847	64.75049	105.26292	23.75979	0.36261	10.2449	36267.85642	0.73993	2.09015E-4	1521.91101	45568.523	55.6104	9852.196
1275.0	0.9384	0.0615985	7.25748	7.56714	-3.96953	22.06637	31.7702	1.58786	0.62978	67.8741	105.53717	24.92794	0.36141	10.39425	39766.84008	0.72695	1.90011E-4	1517.08893	45305.652	52.5742	9915.77
1270.0	0.94381	0.0561864	7.26122	7.56319	-4.01969	22.00357	31.72925	1.58477	0.63101	70.57415	105.82359	25.93951	0.36036	10.54636	43439.25498	0.71415	1.73385E-4	1512.57225	45054.681	50.1942	9967.875
1265.0	0.94843	0.0515654	7.2648	7.5594	-4.06776	21.9466	31.68459	1.58186	0.63217	72.93462	106.11897	26.82534	0.35944	10.70035	47314.69442	0.7016	1.58668E-4	1508.32673	44813.164	48.3034	10010.955
1260.0	0.95242	0.0475771	7.26825	7.55575	-4.11411	21.8944	31.63701	1.57909	0.63328	75.02262	106.42114	27.61013	0.35861	10.85632	51422.57158	0.68927	1.45518E-4	1504.31675	44579.261	46.7806	10046.847
1255.0	0.9559	0.0441036	7.27159	7.55222	-4.15888	21.84661	31.58701	1.57643	0.63434	76.88851	106.72904	28.31241	0.35786	11.01482	55793.73478	0.67713	1.3368E-4	1500.50881	44351.571	45.538	10076.95
1250.0	0.95895	0.041051	7.27485	7.54878	-4.20246	21.80206	31.53512	1.57386	0.63538	78.57492	107.04098	28.94798	0.35717	11.17592	60458.30476	0.66519	1.22963E-4	1496.88081	44129.011	44.512	10102.344
1245.0	0.96165	0.0383463	7.27803	7.54543	-4.24506	21.76018	31.48159	1.57136	0.63639	80.11263	107.35623	29.52822	0.35654	11.33929	65448.265	0.65345	1.13215E-4	1493.4119	43910.737	43.6548	10123.872
1240.0	0.96407	0.035934	7.28115	7.54213	-4.28685	21.72047	31.42676	1.56892	0.63738	81.52847	107.67407	30.06306	0.35596	11.50502	70798.32736	0.64192	1.04315E-4	1490.08458	43696.085	42.9304	10142.203
1235.0	0.96623	0.0337664	7.28422	7.5389	-4.32787	21.68281	31.37076	1.56652	0.63836	82.84065	107.99405	30.55926	0.35541	11.67373	76543.94471	0.63055	9.61657E-5	1486.88216	43484.516	42.3138	10157.877
1230.0	0.96819	0.0318097	7.28725	7.53572	-4.36822	21.64692	31.31384	1.56417	0.63932	84.06622	108.31559	31.02317	0.35489	11.84556	82723.53325	0.61935	8.8687E-5	1483.79138	43275.605	41.7822	10171.317
1225.0	0.96997	0.0300309	7.29023	7.53258	-4.40807	21.61231	31.25614	1.56184	0.64027	85.2185	108.63833	31.45973	0.35441	12.02006	89378.83528	0.60832	8.18102E-5	1480.80401	43069.007	41.3196	10182.866
1220.0	0.97159	0.0284081	7.29319	7.52948	-4.44747	21.57881	31.19772	1.55955	0.64121	86.30793	108.96193	31.87285	0.35394	12.19784	96554.51446	0.59746	7.54775E-5	1477.91061	42864.438	40.9138	10192.806
1215.0	0.97308	0.0269199	7.29612	7.52641	-4.48646	21.54634	31.1387	1.55727	0.64215	87.34321	109.28622	32.26575	0.3535	12.37859	104299.1984	0.58676	6.9639E-5	1475.10271	42661.663	40.555	10201.368
1210.0	0.97445	0.0255485	7.29902	7.52336	-4.52507	21.5148	31.07916	1.55501	0.64308	88.33093	109.61102	32.6409	0.35307	12.56289	112666.0263	0.57621	6.42508E-5	1472.37346	42460.489	40.2348	10208.745
1205.0	0.97572	0.0242816	7.3019	7.52035	-4.56332	21.48414	31.01915	1.55277	0.64401	89.27746	109.93615	33.00067	0.35266	12.75092	121712.7552	0.5658	5.92747E-5	1469.71614	42260.751	39.9476	10215.098
1200.0	0.97689	0.0231059	7.30476	7.51736	-4.60131	21.45405	30.95874	1.55053	0.64494	90.18786	110.26142	33.34695	0.35227	12.94224	131501.3594	0.55555	5.46768E-5	1467.12858	42062.312	39.6878	10220.559
1199.82	0.97694	0.0230644	7.30487	7.51724	-4.60271	21.45293	30.95654	1.55045	0.64497	90.22084	110.27334	33.3595	0.35225	12.9492	131876.2309	0.55518	5.45146E-5	1467.03451	42055.034	 	10220.742
1195.0	0.9806	0.0193982	7.30848	7.51364	-4.64844	21.39434	30.90699	1.54786	0.64605	92.15888	110.57023	34.09566	0.35148	13.09172	143611.9292	0.54734	4.98961E-5	1463.05971	41831.386	46.1852	10258.919
1190.0	0.98371	0.016294	7.31211	7.51003	-4.69421	21.33849	30.85261	1.54531	0.64712	93.88382	110.88356	34.75178	0.35078	13.24354	156533.5236	0.53923	4.56214E-5	1459.28165	41607.983	44.6806	10290.162
1185.0	0.98626	0.013744	7.31564	7.50653	-4.73868	21.2864	30.79594	1.54286	0.64815	95.38435	111.20059	35.32327	0.35016	13.39834	170320.0806	0.53118	4.17853E-5	1455.81637	41391.598	43.277	10314.791
1180.0	0.98837	0.0116274	7.3191	7.50311	-4.78205	21.23742	30.73754	1.54049	0.64914	96.7108	111.52028	35.82901	0.34962	13.55708	185091.1217	0.52316	3.83188E-5	1452.62482	41180.751	42.1694	10334.285
1175.0	0.99015	0.00985289	7.32249	7.49976	-4.82455	21.19086	30.67774	1.53818	0.65012	97.90079	111.84183	36.28317	0.34912	13.71985	200969.901	0.51517	3.51697E-5	1449.67526	40974.334	41.2834	10349.748
1170.0	0.99165	0.00835122	7.32583	7.49647	-4.86632	21.14628	30.61689	1.53592	0.65108	98.98257	112.16463	36.69642	0.34867	13.88692	218087.6388	0.50722	3.22974E-5	1446.94045	40771.509	40.565	10362.018
1165.0	0.99293	0.00706848	7.32913	7.49323	-4.90747	21.10339	30.55515	1.53369	0.65202	99.97649	112.48823	37.07643	0.34825	14.05838	236578.3444	0.49929	2.96699E-5	1444.39572	40571.63	39.9758	10371.736
1160.0	0.99403	0.00596527	7.33238	7.49003	-4.94809	21.06186	30.49273	1.53149	0.65296	100.89971	112.81228	37.42968	0.34786	14.23433	256592.6467	0.49141	2.72605E-5	1442.02055	40374.2	39.486	10379.401
1155.0	0.99499	0.00500843	7.33559	7.48687	-4.98822	21.02158	30.42979	1.5293	0.65389	101.76455	113.13652	37.76084	0.34749	14.41417	278285.7227	0.48358	2.50478E-5	1439.79685	40178.825	39.075	10385.401
1150.0	0.99583	0.00417201	7.33878	7.48374	-5.02794	20.98229	30.36526	1.52718	0.6548	102.58141	113.46071	38.07385	0.34714	14.59943	301835.9874	0.47577	2.30126E-5	1437.7073	39985.197	38.7256	10390.045
1145.0	0.99656	0.00343632	7.34193	7.48064	-5.06729	20.94391	30.30148	1.52502	0.65573	103.35801	113.78471	38.37163	0.3468	14.7887	327427.3588	0.46804	2.11395E-5	1435.73881	39793.068	38.4258	10393.577
1140.0	0.99722	0.00278475	7.34506	7.47756	-5.10629	20.90637	30.23745	1.52286	0.65666	103.62124	114.10836	38.47855	0.34648	14.98275	355267.5997	0.46034	1.94142E-5	1433.87995	39602.24	38.1656	10396.194
1135.0	0.9978	0.00220484	7.34817	7.47451	-5.14499	20.86953	30.17323	1.5207	0.65759	104.48969	114.43158	38.80999	0.34617	15.18162	385584.098	0.45271	1.78245E-5	1432.11772	39412.552	37.9376	10398.056
1130.0	0.99832	0.00168413	7.35125	7.47149	-5.18342	20.83325	30.10869	1.51855	0.65852	105.31516	114.75426	39.12535	0.34587	15.3852	418629.3129	0.44513	1.63592E-5	1430.44224	39223.873	37.7358	10399.29
1125.0	0.99883	0.00116652	7.35438	7.46843	-5.22217	20.79554	30.04374	1.51641	0.65945	106.11436	115.07622	39.43109	0.34557	15.57746	454765.7769	0.43807	1.50056E-5	1428.65871	39035.66	37.6426	10400.44
1120.0	0.99926	7.40342E-4	7.35744	7.46544	-5.2602	20.75998	29.97869	1.51427	0.66038	106.82045	115.39762	39.70191	0.34528	15.78245	494130.1065	0.43083	1.37608E-5	1427.02129	38848.853	37.3614	10400.561
1115.0	0.99965	3.53651E-4	7.36048	7.46246	-5.29797	20.72496	29.91369	1.51211	0.66133	107.47842	115.71837	39.95479	0.345	15.99423	537131.9095	0.4236	1.26137E-5	1425.46206	38662.762	37.2182	10400.343
1110.0	1.0	0.0	7.36349	7.4595	-5.33555	20.69032	29.84854	1.50995	0.66227	108.10692	116.03834	40.19666	0.34473	 	584151.8317	 	1.15566E-5	 	38477.331	37.0862	10399.839
1105.0	1.0	0.0	7.36601	7.45695	-5.36788	20.67357	29.7827	1.50782	0.66321	108.5519	116.35705	40.36848	0.34451	 	634770.8251	 	1.05966E-5	 	38275.605	40.3452	 
1100.0	1.0	0.0	7.36853	7.45441	-5.40017	20.65684	29.71685	1.50568	0.66415	108.99676	116.67476	40.54031	0.3443	 	690198.5796	 	9.71025E-6	 	38094.694	36.1822	 
1095.0	1.0	0.0	7.37104	7.45186	-5.43241	20.64012	29.651	1.50353	0.6651	109.4415	116.99148	40.71214	0.34409	 	750930.8836	 	8.89243E-6	 	37914.045	36.1298	 
1090.0	1.0	0.0	7.37355	7.44933	-5.4646	20.62343	29.58513	1.50137	0.66606	109.8861	117.30719	40.88399	0.34388	 	817518.5718	 	8.13828E-6	 	37733.659	36.0772	 
1085.0	1.0	0.0	7.37606	7.4468	-5.49675	20.60674	29.51926	1.4992	0.66702	110.33056	117.62191	41.05583	0.34366	 	890574.0665	 	7.44328E-6	 	37553.534	36.025	 
1080.0	1.0	0.0	7.37856	7.44427	-5.52884	20.59008	29.45337	1.49702	0.66799	110.77488	117.93562	41.22768	0.34345	 	970778.7463	 	6.80319E-6	 	37373.67	35.9728	 
1075.0	1.0	0.0	7.38106	7.44174	-5.56088	20.57343	29.38748	1.49484	0.66897	111.21906	118.24832	41.39952	0.34324	 	1058891.253	 	6.21403E-6	 	37194.069	35.9202	 
1070.0	1.0	0.0	7.38357	7.43922	-5.59288	20.5568	29.32158	1.49264	0.66995	111.66307	118.56001	41.57136	0.34303	 	1155756.866	 	5.67211E-6	 	37014.731	35.8676	 
1065.0	1.0	0.0	7.38607	7.4367	-5.62482	20.54019	29.25567	1.49043	0.67095	112.10693	118.87069	41.7432	0.34282	 	1262318.081	 	5.17396E-6	 	36835.656	35.815	 
1060.0	1.0	0.0	7.38856	7.43419	-5.65672	20.52359	29.18975	1.48822	0.67194	112.55062	119.18036	41.91503	0.3426	 	1379626.577	 	4.71633E-6	 	36656.844	35.7624	 
1055.0	1.0	0.0	7.39106	7.43168	-5.68857	20.50701	29.12381	1.48599	0.67295	112.99413	119.48901	42.08684	0.34239	 	1508856.731	 	4.29621E-6	 	36478.294	35.71	 
1050.0	1.0	0.0	7.39355	7.42917	-5.72037	20.49044	29.05787	1.48376	0.67396	113.43747	119.79665	42.25865	0.34218	 	1651320.935	 	3.91079E-6	 	36300.005	35.6578	 
1045.0	1.0	0.0	7.39604	7.42667	-5.75212	20.47389	28.99192	1.48151	0.67499	113.88062	120.10327	42.43044	0.34197	 	1808486.928	 	3.55743E-6	 	36121.977	35.6056	 
1040.0	1.0	0.0	7.39853	7.42417	-5.78382	20.45736	28.92596	1.47926	0.67601	114.32358	120.40887	42.60221	0.34176	 	1981997.459	 	3.23369E-6	 	35944.209	35.5536	 
1035.0	1.0	0.0	7.40102	7.42168	-5.81547	20.44085	28.86	1.47699	0.67705	114.76635	120.71344	42.77397	0.34154	 	2173692.585	 	2.93729E-6	 	35766.699	35.502	 
1030.0	1.0	0.0	7.4035	7.41919	-5.84708	20.42435	28.79402	1.47472	0.67809	115.20892	121.01699	42.9457	0.34133	 	2385635.001	 	2.6661E-6	 	35589.447	35.4504	 
1025.0	1.0	0.0	7.40598	7.4167	-5.87864	20.40787	28.72803	1.47244	0.67915	115.65128	121.31951	43.11742	0.34112	 	2620138.822	 	2.41817E-6	 	35412.452	35.399	 
1020.0	1.0	0.0	7.40846	7.41422	-5.91015	20.3914	28.66203	1.47014	0.68021	116.09343	121.62101	43.2891	0.34091	 	2879802.325	 	2.19166E-6	 	35235.712	35.348	 
1015.0	1.0	0.0	7.41094	7.41174	-5.94161	20.37495	28.59602	1.46784	0.68127	116.53536	121.92147	43.46076	0.3407	 	3167545.221	 	1.98486E-6	 	35059.228	35.2968	 
1010.0	1.0	0.0	7.41342	7.40927	-5.97302	20.35852	28.53001	1.46553	0.68235	116.97706	122.22091	43.63239	0.34048	 	3486651.132	 	1.7962E-6	 	34882.997	35.2462	 
1005.0	1.0	0.0	7.41589	7.40679	-6.00438	20.3421	28.46398	1.4632	0.68343	117.41854	122.51931	43.80399	0.34027	 	3840816.029	 	1.62422E-6	 	34707.019	35.1956	 
1000.0	1.0	0.0	7.41836	7.40433	-6.0357	20.32571	28.39794	1.46087	0.68453	117.85978	122.81667	43.97556	0.34006	 	4234203.522	 	1.46756E-6	 	34531.293	35.1452	 
995.0	1.0	0.0	7.42083	7.40186	-6.06697	20.30932	28.3319	1.45852	0.68563	118.30079	123.113	44.14709	0.33985	 	4671508.038	 	1.32495E-6	 	34355.818	35.095	 
