T (C)	Fraction solid (wt)-TOTAL	Fraction liquid (wt)-LIQUID	Density (g/(cm)^3)-TOTAL	Molar volume (cm^3)-TOTAL	Volume change (%)-  	Average expansion coeff. (10e-6 1/K)-  	Thermal conductivity (W/(m*K))-TOTAL	Electrical resistivity (10e-6 Ohm*m)-TOTAL	Electrical conductivity (10e6 1/(Ohm*m))-TOTAL	Young's modulus (GPa)-TOTAL	Bulk modulus (GPa)-TOTAL	Shear modulus(GPa)-TOTAL	Poisson's ratio-TOTAL	Liquid viscosity (mPa s)-  	Total viscosity (mPa s)-  	Liquid diffusivity (10e-9 (m^2)/s)-  	Total diffusivity (10e-9 (m^2)/s)-  	Surface Tension (mN/m)-  	Enthalpy (J/mole)-TOTAL	Specific heat (J/(mole K))-TOTAL	Latent heat (J/mole)-TOTAL
1500.0	0.0	1.0	6.92926	7.8524	0.0	27.19311	31.67629	1.82402	0.54824	0.0	104.22488	0.0	0.49926	6.58725	6.58725	1.3138	1.3138	1762.44562	64989.753	 	0.0
1495.0	0.0	1.0	6.93315	7.848	-0.0560441	27.14323	31.6006	1.82323	0.54848	0.0	104.41012	0.0	0.49926	6.64405	6.64405	1.29889	1.29889	1764.2327	64768.282	44.2942	0.0
1490.0	0.0	1.0	6.93703	7.84361	-0.11193	27.0934	31.52491	1.82244	0.54871	0.0	104.59536	0.0	0.49926	6.70168	6.70168	1.28408	1.28408	1766.01627	64547.343	44.1878	0.0
1485.0	0.0	1.0	6.9409	7.83924	-0.16767	27.04364	31.44921	1.82165	0.54895	0.0	104.7806	0.0	0.49926	6.76014	6.76014	1.26937	1.26937	1767.79629	64326.933	44.082	0.0
1480.0	0.0	1.0	6.94477	7.83487	-0.22324	26.99393	31.37352	1.82085	0.54919	0.0	104.96584	0.0	0.49926	6.81944	6.81944	1.25475	1.25475	1769.57271	64107.047	43.9772	0.0
1475.0	0.0	1.0	6.94863	7.83052	-0.27866	26.94427	31.29782	1.82005	0.54944	0.0	105.15108	0.0	0.49926	6.87961	6.87961	1.24023	1.24023	1771.34548	63887.684	43.8726	0.0
1470.0	0.0	1.0	6.95248	7.82618	-0.33393	26.89468	31.22213	1.81924	0.54968	0.0	105.33633	0.0	0.49926	6.94066	6.94066	1.2258	1.2258	1773.11457	63668.838	43.7692	0.0
1465.0	0.0	1.0	6.95633	7.82186	-0.38904	26.84514	31.14644	1.81843	0.54992	0.0	105.52157	0.0	0.49926	7.0026	7.0026	1.21147	1.21147	1774.87993	63450.506	43.6664	0.0
1460.0	0.0	1.0	6.96016	7.81754	-0.44399	26.79567	31.07074	1.81762	0.55017	0.0	105.70681	0.0	0.49926	7.06547	7.06547	1.19724	1.19724	1776.64151	63232.686	43.564	0.0
1455.0	0.0	1.0	6.964	7.81324	-0.49879	26.74626	30.99505	1.8168	0.55042	0.0	105.89205	0.0	0.49926	7.12926	7.12926	1.18311	1.18311	1778.39926	63015.373	43.4626	0.0
1450.0	0.0	1.0	6.96782	7.80895	-0.55343	26.69691	30.91936	1.81598	0.55067	0.0	106.07729	0.0	0.49926	7.19401	7.19401	1.16907	1.16907	1780.15315	62798.582	43.3582	0.0
1445.0	0.0	1.0	6.97164	7.80467	-0.60792	26.64762	30.84366	1.81515	0.55092	0.0	106.26253	0.0	0.49926	7.25972	7.25972	1.15512	1.15512	1781.90312	62582.34	43.2484	0.0
1444.97	0.0	1.0	6.97167	7.80464	-0.60825	26.64732	30.8432	1.81515	0.55092	0.0	106.26366	0.0	0.49926	7.26013	7.26013	1.15504	1.15504	1781.9138	62581.018	43.2309	0.0010
1440.0	0.15046	0.84954	6.99948	7.77353	-1.00447	25.69521	31.27078	1.78515	0.56018	0.0268441	100.13054	0.00908652	0.47714	7.27908	10.57919	1.1487	0.79037	1780.2197	60992.87	319.584	1373.767
1435.0	0.26812	0.73188	7.02197	7.74879	-1.3195	24.95195	31.60404	1.76117	0.5678	0.27614	95.416	0.0945906	0.45968	7.29872	28.58979	1.14226	0.29161	1778.68581	59709.755	256.623	2441.721
1430.0	0.3616	0.6384	7.04052	7.72847	-1.57824	24.35305	31.8656	1.7416	0.57418	0.92998	91.75019	0.32164	0.44569	7.3185	74.96904	1.13584	0.11088	1777.30485	58652.442	211.463	3284.407
1425.0	0.43734	0.56266	7.05613	7.71159	-1.79326	23.86645	32.07353	1.72523	0.57963	2.0219	88.86191	0.70485	0.43427	7.33878	154.79716	1.12938	0.0535426	1776.0544	57761.039	178.281	3961.715
1420.0	0.49971	0.50029	7.0695	7.69723	-1.97613	23.46245	32.23957	1.71129	0.58435	3.49783	86.56037	1.2275	0.42478	7.35946	267.55276	1.12289	0.0308868	1774.92078	56994.441	153.32	4514.744
1419.74	0.50266	0.49734	7.07016	7.69655	-1.9848	23.44361	32.24726	1.71062	0.58458	3.58338	86.45469	1.25791	0.42434	7.36045	274.25762	1.12256	0.0301271	1774.86335	56957.473	 	4540.625
1415.0	0.57609	0.42391	7.08519	7.68051	-2.18903	22.97487	32.35392	1.70021	0.58816	5.90275	85.36177	2.08714	0.41408	7.3781	540.7186	1.11674	0.0152379	1772.7932	55959.86	206.916	5336.28
1410.0	0.63763	0.36237	7.09839	7.66662	-2.3659	22.58089	32.43161	1.69111	0.59133	8.88196	84.61411	3.15996	0.40539	7.39735	903.99736	1.11054	0.00908746	1770.81002	55086.376	174.697	5997.239
1405.0	0.68707	0.31293	7.10954	7.65503	-2.51351	22.26326	32.48268	1.68344	0.59402	12.27479	84.14545	4.38908	0.39833	7.41752	1333.31364	1.10423	0.00614307	1769.00638	54348.651	147.545	6522.957
1400.0	0.72744	0.27256	7.11923	7.64507	-2.64044	21.9995	32.51363	1.67682	0.59637	15.93581	83.87188	5.722	0.3925	7.43801	1814.34615	1.09791	0.00450092	1767.36793	53712.2	127.29	6947.911
1398.68	0.73676	0.26324	7.12156	7.64269	-2.67071	21.93842	32.51884	1.67523	0.59693	16.91689	83.82511	6.08019	0.39115	7.44364	1947.13726	1.09621	0.00419065	1766.948	53559.079	 	7045.092
1395.0	0.75985	0.24015	7.12753	7.63652	-2.74931	21.783	32.52504	1.67123	0.59836	19.58916	83.78295	7.05774	0.38778	7.45863	2325.17042	1.0916	0.0035016	1765.84879	53158.085	110.823	7291.037
1390.0	0.78722	0.21278	7.13496	7.62898	-2.84531	21.60017	32.52539	1.6662	0.60017	23.27019	83.79804	8.4084	0.38375	7.47959	2872.16978	1.08528	0.00282623	1764.45992	52659.177	99.7816	7579.463
1385.0	0.81058	0.18942	7.14176	7.62215	-2.93231	21.44068	32.51711	1.66161	0.60183	26.91074	83.88088	9.74845	0.38026	7.50064	3451.14808	1.07898	0.00234502	1763.18139	52206.194	90.5966	7822.465
1380.0	0.83065	0.16935	7.14805	7.61588	-3.01209	21.29993	32.50164	1.65739	0.60336	30.45106	84.01776	11.05531	0.37721	7.52167	4059.85608	1.07272	0.00198741	1762.00453	51790.44	83.1508	8028.737
1375.0	0.84803	0.15197	7.15391	7.61011	-3.08561	21.17544	32.48029	1.65346	0.60479	33.85527	84.19889	12.31514	0.37454	7.54278	4697.95494	1.06648	0.00171228	1760.91803	51405.201	77.0478	8204.99
1370.0	0.86318	0.13682	7.1594	7.60475	-3.1539	21.06454	32.45393	1.64979	0.60614	37.09937	84.41626	13.51849	0.37217	7.56423	5365.63846	1.06023	0.00149466	1759.91427	51045.225	71.9952	8356.472
1365.0	0.87647	0.12353	7.16461	7.5997	-3.21816	20.96405	32.42333	1.64632	0.60742	40.17614	84.66352	14.66216	0.37006	7.58545	6064.41774	1.05404	0.00131841	1758.98973	50706.357	67.7736	8487.336
1360.0	0.88816	0.11184	7.16955	7.59497	-3.27846	20.8739	32.38911	1.64303	0.60863	43.07904	84.93636	15.74325	0.36817	7.60738	6795.5994	1.0478	0.00117296	1758.13163	50385.272	64.217	8600.903
1355.0	0.89851	0.10149	7.17429	7.59045	-3.33593	20.791	32.35181	1.63989	0.6098	45.81807	85.2298	16.76511	0.36647	7.62934	7562.34772	1.04158	0.00105081	1757.34068	50079.282	61.198	8699.858
1350.72	0.90662	0.0933819	7.17826	7.58672	-3.38353	20.72406	32.31797	1.63729	0.61077	48.07227	85.49451	17.60734	0.36512	7.64823	8254.68628	1.03628	9.60146E-4	1756.70868	49826.199	 	8776.072
1350.0	0.90817	0.0918281	7.17906	7.58596	-3.39315	20.7082	32.3125	1.63684	0.61093	48.5127	85.53758	17.77199	0.36486	7.65244	8385.06715	1.03525	9.44798E-4	1756.77454	49780.68	59.7204	8791.905
1345.0	0.9183	0.0816974	7.18445	7.58092	-3.45735	20.605	32.27296	1.6338	0.61207	51.47439	85.84794	18.88029	0.36318	7.68203	9317.47074	1.02809	8.47632E-4	1757.25796	49472.458	61.6444	8894.05
1340.0	0.92717	0.0728264	7.18951	7.57622	-3.51713	20.51358	32.23061	1.63089	0.61316	54.2167	86.17642	19.90818	0.36167	7.71173	10290.15266	1.02096	7.65138E-4	1757.77409	49179.256	58.6404	8981.649
1335.0	0.93498	0.0650233	7.19429	7.57182	-3.57321	20.432	32.1859	1.62809	0.61422	56.75883	86.52019	20.86245	0.36031	7.74127	11307.37482	1.01391	6.94147E-4	1758.32012	48898.727	56.1058	9057.045
1330.0	0.94187	0.0581285	7.19884	7.56767	-3.62612	20.35889	32.13913	1.62539	0.61524	59.11915	86.87686	21.74967	0.35908	7.7711	12373.7223	1.00688	6.32354E-4	1758.892	48628.967	53.952	9122.141
1325.0	0.94799	0.0520125	7.20318	7.56373	-3.67628	20.29311	32.09061	1.62277	0.61623	61.31497	87.24449	22.57607	0.35796	7.80112	13494.09621	0.99988	5.78043E-4	1759.48587	48368.414	52.1106	9178.495
1320.0	0.95343	0.0465682	7.20734	7.55996	-3.7242	20.23326	32.04055	1.62022	0.6172	63.36336	87.62164	23.34785	0.35694	7.8312	14673.88538	0.99292	5.29905E-4	1760.10244	48115.781	50.5266	9227.392
1315.0	0.95829	0.0417059	7.21135	7.55635	-3.77018	20.17859	31.98915	1.61773	0.61815	65.27898	88.00668	24.07036	0.356	7.86161	15918.72912	0.98598	4.86934E-4	1760.73863	47869.997	49.1568	9269.9
1310.0	0.96265	0.0373467	7.21523	7.55288	-3.81437	20.12868	31.93661	1.61529	0.61908	67.07518	88.39879	24.74846	0.35514	7.89248	17234.72979	0.97903	4.48337E-4	1761.38787	47630.161	47.9672	9306.916
1305.0	0.96657	0.0334272	7.21899	7.54953	-3.85713	20.08253	31.88303	1.6129	0.62	68.76454	88.79683	25.3868	0.35434	7.92383	18628.41317	0.97207	4.13484E-4	1762.05334	47395.52	46.9282	9339.191
1300.0	0.97011	0.029893	7.22265	7.54627	-3.89864	20.03972	31.82857	1.61054	0.62091	70.35886	89.20016	25.98971	0.35359	7.95547	20107.00359	0.96514	3.81865E-4	1762.73193	47165.431	46.0178	9367.366
1295.0	0.97331	0.026695	7.22622	7.54309	-3.9391	19.99963	31.77331	1.60821	0.62181	71.86801	89.6081	26.56086	0.35289	7.98738	21678.02041	0.95823	3.53065E-4	1763.4255	46939.349	45.2164	9391.983
1290.0	0.97621	0.0237929	7.22971	7.53999	-3.97853	19.96227	31.71736	1.60591	0.6227	73.30075	90.02003	27.10347	0.35224	8.02036	23349.70651	0.95125	3.26743E-4	1764.12429	46716.804	44.509	9413.506
1285.0	0.97885	0.0211478	7.23314	7.53696	-4.01718	19.92694	31.6608	1.60363	0.62358	74.66601	90.43529	27.62088	0.35162	8.05379	25131.01821	0.94427	3.02612E-4	1764.83586	46497.367	43.8874	9432.366
1280.0	0.98127	0.0187329	7.23651	7.53398	-4.05511	19.89347	31.6037	1.60138	0.62446	75.97126	90.85377	28.11585	0.35104	8.08775	27031.6331	0.93729	2.80432E-4	1765.55562	46280.718	43.3298	9448.879
1275.0	0.98348	0.0165205	7.23982	7.53106	-4.09235	19.8618	31.54611	1.59913	0.62534	77.22158	91.27497	28.59028	0.35049	8.12307	29061.45621	0.93021	2.60005E-4	1766.2776	46066.556	42.8324	9463.343
1270.0	0.98551	0.0144868	7.24309	7.52818	-4.12904	19.83151	31.4881	1.59691	0.62621	78.42405	91.69844	29.04681	0.34996	8.15908	31232.01018	0.92311	2.41154E-4	1767.00736	45854.622	42.3868	9476.015
1265.0	0.98739	0.0126122	7.24632	7.52533	-4.16525	19.80242	31.42971	1.59469	0.62708	79.5834	92.12408	29.48721	0.34946	8.19585	33555.21386	0.91599	2.23731E-4	1767.74381	45644.685	41.9874	9487.122
1260.0	0.98912	0.0108772	7.24951	7.52252	-4.20101	19.77445	31.37096	1.59248	0.62795	80.70479	92.55165	29.91341	0.34897	8.23385	36044.43925	0.9088	2.07603E-4	1768.48322	45436.549	41.6272	9496.86
1255.0	0.99073	0.00926738	7.25267	7.51975	-4.23637	19.74747	31.31193	1.59028	0.62882	81.79241	92.98074	30.32698	0.34851	8.27313	38713.95125	0.90154	1.92657E-4	1769.22338	45230.039	41.302	9505.399
1252.58	0.99117	0.00882885	7.25401	7.51846	-4.25272	19.7367	31.28296	1.58923	0.62923	82.19446	93.18974	30.47989	0.34834	8.29255	40022.36703	0.898	1.86064E-4	1769.58172	45133.019	 	9506.701
1250.0	0.9934	0.00660373	7.25604	7.51633	-4.27989	19.69542	31.25335	1.58805	0.6297	83.34928	93.42892	30.9206	0.3478	8.40547	41797.16115	0.88444	1.77862E-4	1768.20704	44999.087	46.1904	9538.804
1245.0	0.99646	0.0035358	7.25972	7.51245	-4.32934	19.62477	31.1958	1.58576	0.63061	85.1198	93.88511	31.59656	0.34698	8.62622	45229.74312	0.85898	1.63824E-4	1765.87141	44759.358	47.9458	9581.411
1240.0	0.99853	0.00147439	7.26318	7.50878	-4.37599	19.56215	31.13772	1.58348	0.63152	86.50484	94.33483	32.12553	0.34636	8.85009	48747.04997	0.83449	1.51503E-4	1763.78648	44535.843	44.703	9608.231
1235.0	1.0	0.0	7.26651	7.50526	-4.4209	19.50438	31.0795	1.58121	0.63243	87.66422	94.78093	32.5684	0.34585	 	52425.69787	 	1.40406E-4	 	44321.872	42.7942	9625.938
1230.0	1.0	0.0	7.26891	7.50278	-4.45247	19.48746	31.0184	1.57907	0.63329	88.18703	95.2177	32.7677	0.34564	 	56040.1688	 	1.30915E-4	 	44081.309	48.1126	 
1225.0	1.0	0.0	7.27131	7.5003	-4.484	19.47054	30.9573	1.57692	0.63415	88.71096	95.6545	32.96747	0.34543	 	59931.74828	 	1.22007E-4	 	43891.02	38.0578	 
1220.0	1.0	0.0	7.27371	7.49783	-4.51548	19.45363	30.8962	1.57477	0.63501	89.23597	96.09129	33.16771	0.34522	 	64123.73958	 	1.1365E-4	 	43700.958	38.0124	 
1215.0	1.0	0.0	7.2761	7.49536	-4.54691	19.43672	30.8351	1.5726	0.63589	89.76205	96.52806	33.3684	0.34502	 	68641.57391	 	1.05815E-4	 	43511.141	37.9634	 
1210.0	1.0	0.0	7.2785	7.4929	-4.5783	19.41983	30.774	1.57043	0.63677	90.28917	96.96477	33.56955	0.34481	 	73513.01968	 	9.84708E-5	 	43321.574	37.9134	 
1205.0	1.0	0.0	7.28089	7.49044	-4.60964	19.40294	30.71289	1.56825	0.63765	90.81729	97.4014	33.77113	0.3446	 	78768.414	 	9.15911E-5	 	43132.255	37.8638	 
1200.0	1.0	0.0	7.28328	7.48798	-4.64092	19.38606	30.65179	1.56606	0.63854	91.34641	97.83792	33.97314	0.34439	 	84440.91851	 	8.51492E-5	 	42943.184	37.8142	 
1195.0	1.0	0.0	7.28566	7.48553	-4.67217	19.36919	30.59068	1.56386	0.63944	91.8765	98.27431	34.17558	0.34418	 	90566.80263	 	7.91203E-5	 	42754.36	37.7648	 
1190.0	1.0	0.0	7.28805	7.48308	-4.70336	19.35233	30.52958	1.56166	0.64035	92.40753	98.71055	34.37843	0.34398	 	97185.75712	 	7.34806E-5	 	42565.781	37.7158	 
1185.0	1.0	0.0	7.29043	7.48063	-4.73451	19.33548	30.46847	1.55944	0.64125	92.93948	99.14661	34.58168	0.34377	 	104341.2416	 	6.82076E-5	 	42377.445	37.6672	 
1180.0	1.0	0.0	7.29281	7.47819	-4.7656	19.31863	30.40736	1.55722	0.64217	93.47232	99.58246	34.78533	0.34356	 	112080.8697	 	6.32799E-5	 	42189.351	37.6188	 
1175.0	1.0	0.0	7.29519	7.47575	-4.79665	19.3018	30.34625	1.55498	0.64309	94.00603	100.01808	34.98936	0.34335	 	120456.8364	 	5.86771E-5	 	42001.498	37.5706	 
1170.0	1.0	0.0	7.29757	7.47332	-4.82766	19.28497	30.28514	1.55274	0.64402	94.5406	100.45345	35.19378	0.34314	 	129526.3925	 	5.43801E-5	 	41813.884	37.5228	 
1165.0	1.0	0.0	7.29994	7.47089	-4.85861	19.26815	30.22403	1.55049	0.64496	95.07599	100.88854	35.39857	0.34294	 	139352.3714	 	5.03705E-5	 	41626.509	37.475	 
1160.0	1.0	0.0	7.30231	7.46846	-4.88952	19.25133	30.16292	1.54823	0.6459	95.61218	101.32334	35.60372	0.34273	 	150003.7747	 	4.66312E-5	 	41439.369	37.428	 
1155.0	1.0	0.0	7.30468	7.46604	-4.92038	19.23453	30.10181	1.54596	0.64685	96.14916	101.75781	35.80922	0.34252	 	161556.4236	 	4.31456E-5	 	41252.464	37.381	 
1150.0	1.0	0.0	7.30705	7.46362	-4.95119	19.21773	30.04069	1.54368	0.6478	96.68689	102.19194	36.01507	0.34231	 	174093.6838	 	3.98983E-5	 	41065.793	37.3342	 
1145.0	1.0	0.0	7.30942	7.4612	-4.98196	19.20095	29.97958	1.5414	0.64876	97.22536	102.6257	36.22126	0.3421	 	187707.2727	 	3.68746E-5	 	40879.353	37.288	 
1140.0	1.0	0.0	7.31178	7.45879	-5.01268	19.18417	29.91847	1.5391	0.64973	97.76454	103.05908	36.42777	0.3419	 	202498.1586	 	3.40607E-5	 	40693.143	37.242	 
1135.0	1.0	0.0	7.31414	7.45638	-5.04335	19.16739	29.85735	1.53679	0.65071	98.30441	103.49204	36.63461	0.34169	 	218577.5645	 	3.14434E-5	 	40507.161	37.1964	 
1130.0	1.0	0.0	7.3165	7.45398	-5.07397	19.15063	29.79623	1.53448	0.65169	98.84495	103.92457	36.84176	0.34148	 	236068.0867	 	2.90104E-5	 	40321.406	37.151	 
1125.0	1.0	0.0	7.31886	7.45157	-5.10455	19.13388	29.73511	1.53215	0.65268	99.38613	104.35664	37.04922	0.34127	 	255104.945	 	2.67499E-5	 	40135.875	37.1062	 
1120.0	1.0	0.0	7.32121	7.44918	-5.13507	19.11713	29.67399	1.52982	0.65367	99.92794	104.78824	37.25697	0.34106	 	275837.3795	 	2.46508E-5	 	39950.568	37.0614	 
1115.0	1.0	0.0	7.32357	7.44678	-5.16556	19.10039	29.61287	1.52747	0.65468	100.47036	105.21935	37.46501	0.34086	 	298430.2119	 	2.27028E-5	 	39765.483	37.017	 
1110.0	1.0	0.0	7.32592	7.44439	-5.19599	19.08366	29.55175	1.52512	0.65569	101.01335	105.64993	37.67334	0.34065	 	323065.5936	 	2.08961E-5	 	39580.616	36.9734	 
1105.0	1.0	0.0	7.32827	7.44201	-5.22638	19.06694	29.49063	1.52276	0.6567	101.5569	106.07998	37.88193	0.34044	 	349944.9617	 	1.92213E-5	 	39395.968	36.9296	 
1100.0	1.0	0.0	7.33061	7.43963	-5.25672	19.05022	29.42951	1.52038	0.65773	102.10099	106.50947	38.0908	0.34023	 	379291.2326	 	1.76698E-5	 	39211.535	36.8866	 
1095.0	1.0	0.0	7.33296	7.43725	-5.28701	19.03352	29.36838	1.518	0.65876	102.64559	106.93838	38.29992	0.34002	 	411351.2607	 	1.62333E-5	 	39027.316	36.8438	 
1090.0	1.0	0.0	7.3353	7.43487	-5.31726	19.01682	29.30726	1.51561	0.6598	103.19069	107.36669	38.50928	0.33982	 	446398.5977	 	1.49042E-5	 	38843.309	36.8014	 
1085.0	1.0	0.0	7.33764	7.4325	-5.34745	19.00013	29.24613	1.5132	0.66085	103.73627	107.79439	38.71889	0.33961	 	484736.5923	 	1.3675E-5	 	38659.512	36.7594	 
1080.0	1.0	0.0	7.33998	7.43013	-5.37761	18.98345	29.185	1.51079	0.66191	104.28229	108.22145	38.92874	0.3394	 	526701.8729	 	1.25391E-5	 	38475.922	36.718	 
1075.0	1.0	0.0	7.34232	7.42777	-5.40771	18.96678	29.12387	1.50837	0.66297	104.82875	108.64785	39.13881	0.33919	 	572668.2653	 	1.149E-5	 	38292.538	36.6768	 
1070.0	1.0	0.0	7.34465	7.42541	-5.43777	18.95011	29.06275	1.50593	0.66404	105.37562	109.07357	39.3491	0.33898	 	623051.2028	 	1.05217E-5	 	38109.357	36.6362	 
1065.0	1.0	0.0	7.34698	7.42305	-5.46778	18.93346	29.00162	1.50349	0.66512	105.92287	109.4986	39.5596	0.33878	 	678312.6937	 	9.62856E-6	 	37926.378	36.5958	 
1060.0	1.0	0.0	7.34931	7.4207	-5.49774	18.91681	28.94048	1.50104	0.66621	106.4705	109.92292	39.7703	0.33857	 	738966.9215	 	8.80523E-6	 	37743.597	36.5562	 
1055.0	1.0	0.0	7.35164	7.41835	-5.52766	18.90017	28.87935	1.49857	0.6673	107.01847	110.3465	39.9812	0.33836	 	805586.5635	 	8.04677E-6	 	37561.013	36.5168	 
1050.0	1.0	0.0	7.35396	7.416	-5.55753	18.88354	28.81822	1.4961	0.66841	107.56677	110.76933	40.19229	0.33815	 	878809.9258	 	7.34854E-6	 	37378.624	36.4778	 
1045.0	1.0	0.0	7.35629	7.41366	-5.58735	18.86691	28.75708	1.49361	0.66952	108.11538	111.19139	40.40355	0.33794	 	959349.0061	 	6.70618E-6	 	37196.426	36.4396	 
1040.0	1.0	0.0	7.35861	7.41132	-5.61713	18.8503	28.69595	1.49112	0.67064	108.66427	111.61267	40.61499	0.33774	 	1047998.612	 	6.11562E-6	 	37014.417	36.4018	 
1035.0	1.0	0.0	7.36093	7.40899	-5.64686	18.83369	28.63481	1.48861	0.67177	109.21343	112.03314	40.82659	0.33753	 	1145646.686	 	5.57306E-6	 	36832.595	36.3644	 
1030.0	1.0	0.0	7.36324	7.40666	-5.67654	18.81709	28.57367	1.48609	0.67291	109.76284	112.45279	41.03836	0.33732	 	1253285.994	 	5.07494E-6	 	36650.957	36.3276	 
1025.0	1.0	0.0	7.36556	7.40433	-5.70618	18.8005	28.51254	1.48357	0.67405	110.31247	112.8716	41.25027	0.33711	 	1372027.388	 	4.61795E-6	 	36469.501	36.2912	 
1020.0	1.0	0.0	7.36787	7.40201	-5.73577	18.78392	28.4514	1.48103	0.67521	110.86231	113.28956	41.46232	0.3369	 	1503114.854	 	4.19898E-6	 	36288.223	36.2556	 
1015.0	1.0	0.0	7.37018	7.39969	-5.76531	18.76735	28.39026	1.47848	0.67637	111.41234	113.70664	41.67452	0.3367	 	1647942.595	 	3.81515E-6	 	36107.121	36.2204	 
1010.0	1.0	0.0	7.37249	7.39737	-5.79481	18.75078	28.32912	1.47592	0.67754	111.96252	114.12282	41.88683	0.33649	 	1808074.461	 	3.46376E-6	 	35926.192	36.1858	 
1005.0	1.0	0.0	7.37479	7.39506	-5.82426	18.73422	28.26797	1.47335	0.67873	112.51286	114.5381	42.09927	0.33628	 	1985266.051	 	3.14232E-6	 	35745.433	36.1518	 
1000.0	1.0	0.0	7.37709	7.39275	-5.85366	18.71767	28.20683	1.47076	0.67992	113.06332	114.95246	42.31183	0.33607	 	2181489.882	 	2.84848E-6	 	35564.841	36.1184	 
995.0	1.0	0.0	7.3794	7.39045	-5.88302	18.70113	28.14569	1.46817	0.68112	113.61389	115.36587	42.52449	0.33586	 	2398964.078	 	2.58008E-6	 	35384.412	36.0858	 
990.0	1.0	0.0	7.38169	7.38814	-5.91233	18.6846	28.08454	1.46557	0.68233	114.16455	115.77833	42.73724	0.33566	 	2640185.1	 	2.33511E-6	 	35204.144	36.0536	 
985.0	1.0	0.0	7.38399	7.38585	-5.9416	18.66807	28.0234	1.46295	0.68355	114.71527	116.18981	42.95009	0.33545	 	2907965.118	 	2.11169E-6	 	35024.033	36.0222	 
980.0	1.0	0.0	7.38629	7.38355	-5.97082	18.65156	27.96225	1.46032	0.68478	115.26604	116.60031	43.16302	0.33524	 	3205474.728	 	1.90808E-6	 	34844.076	35.9914	 
975.0	1.0	0.0	7.38858	7.38126	-5.99999	18.63505	27.90111	1.45768	0.68602	115.81684	117.0098	43.37603	0.33503	 	3536291.822	 	1.72268E-6	 	34664.269	35.9614	 
970.0	1.0	0.0	7.39087	7.37897	-6.02911	18.61855	27.83996	1.45503	0.68727	116.36765	117.41826	43.58911	0.33482	 	3904457.546	 	1.55399E-6	 	34484.609	35.932	 
