T (C)	Fraction solid (wt)-TOTAL	Fraction liquid (wt)-LIQUID	Density (g/(cm)^3)-TOTAL	Molar volume (cm^3)-TOTAL	Volume change (%)-  	Average expansion coeff. (10e-6 1/K)-  	Thermal conductivity (W/(m*K))-TOTAL	Electrical resistivity (10e-6 Ohm*m)-TOTAL	Electrical conductivity (10e6 1/(Ohm*m))-TOTAL	Young's modulus (GPa)-TOTAL	Bulk modulus (GPa)-TOTAL	Shear modulus(GPa)-TOTAL	Poisson's ratio-TOTAL	Liquid viscosity (mPa s)-  	Total viscosity (mPa s)-  	Liquid diffusivity (10e-9 (m^2)/s)-  	Total diffusivity (10e-9 (m^2)/s)-  	Surface Tension (mN/m)-  	Enthalpy (J/mole)-TOTAL	Specific heat (J/(mole K))-TOTAL	Latent heat (J/mole)-TOTAL
1500.0	0.0	1.0	6.95766	7.86478	0.0	27.50447	31.22551	1.85035	0.54044	0.0	106.54246	0.0	0.49974	6.72537	6.72537	1.28682	1.28682	1765.80226	64625.405	 	0.0
1495.0	0.0	1.0	6.96155	7.86038	-0.0559637	27.45567	31.15055	1.84957	0.54067	0.0	106.72804	0.0	0.49974	6.78427	6.78427	1.27204	1.27204	1767.59172	64403.729	44.3352	0.0
1490.0	0.0	1.0	6.96544	7.85599	-0.11177	27.40694	31.0756	1.84879	0.54089	0.0	106.91362	0.0	0.49974	6.84403	6.84403	1.25737	1.25737	1769.37814	64182.552	44.2354	0.0
1485.0	0.0	1.0	6.96933	7.85161	-0.16742	27.35828	31.00065	1.848	0.54112	0.0	107.0992	0.0	0.49974	6.90467	6.90467	1.2428	1.2428	1771.16151	63961.873	44.1358	0.0
1480.0	0.0	1.0	6.9732	7.84725	-0.22292	27.30968	30.9257	1.84721	0.54136	0.0	107.28479	0.0	0.49974	6.96619	6.96619	1.22832	1.22832	1772.94178	63741.687	44.0372	0.0
1475.0	0.0	1.0	6.97707	7.8429	-0.27826	27.26115	30.85075	1.84642	0.54159	0.0	107.47037	0.0	0.49974	7.02861	7.02861	1.21394	1.21394	1774.71892	63521.992	43.939	0.0
1470.0	0.0	1.0	6.98094	7.83856	-0.33345	27.21268	30.7758	1.84562	0.54182	0.0	107.65595	0.0	0.49974	7.09196	7.09196	1.19965	1.19965	1776.4929	63302.784	43.8416	0.0
1465.0	0.0	1.0	6.98479	7.83423	-0.38848	27.16428	30.70084	1.84482	0.54206	0.0	107.84153	0.0	0.49974	7.15624	7.15624	1.18547	1.18547	1778.26367	63084.06	43.7448	0.0
1460.0	0.0	1.0	6.98864	7.82991	-0.44335	27.11595	30.62589	1.84402	0.54229	0.0	108.02711	0.0	0.49974	7.22149	7.22149	1.17138	1.17138	1780.03121	62865.817	43.6486	0.0
1455.0	0.0	1.0	6.99249	7.82561	-0.49807	27.06769	30.55094	1.84321	0.54253	0.0	108.21269	0.0	0.49974	7.28771	7.28771	1.15738	1.15738	1781.79547	62648.053	43.5528	0.0
1450.0	0.0	1.0	6.99632	7.82132	-0.55263	27.0195	30.47599	1.8424	0.54277	0.0	108.39827	0.0	0.49974	7.35493	7.35493	1.14349	1.14349	1783.55642	62430.792	43.4522	0.0
1445.0	0.0	1.0	7.00015	7.81704	-0.60704	26.97138	30.40104	1.84158	0.54301	0.0	108.58385	0.0	0.49974	7.42317	7.42317	1.12969	1.12969	1785.31402	62214.083	43.3418	0.0
1440.0	0.0	1.0	7.00397	7.81277	-0.66129	26.92333	30.32609	1.84076	0.54325	0.0	108.76943	0.0	0.49974	7.49244	7.49244	1.11599	1.11599	1787.06823	61997.915	43.2336	0.0
1435.0	0.0	1.0	7.00779	7.80852	-0.71538	26.87535	30.25113	1.83993	0.5435	0.0	108.95502	0.0	0.49974	7.56277	7.56277	1.10238	1.10238	1788.81901	61782.285	43.126	0.0
1432.73	0.0	1.0	7.00952	7.80659	-0.73992	26.85357	30.21708	1.83956	0.54361	0.0	109.03933	0.0	0.49974	7.59508	7.59508	1.09623	1.09623	1789.61332	61684.489	43.0497	0.0040
1430.0	0.0960808	0.90392	7.02675	7.78742	-0.98365	26.25709	30.57772	1.81495	0.55098	0.00493419	105.58129	0.00166057	0.48569	7.61726	8.96235	1.09129	0.92751	1788.90747	60728.059	350.559	839.13
1427.95	0.15916	0.84084	7.03819	7.77479	-1.1442	25.86763	30.81648	1.79872	0.55595	0.0374817	103.33008	0.0126934	0.47642	7.63433	11.88297	1.08754	0.6987	1788.39897	60089.916	 	1389.089
1425.0	0.30629	0.69371	7.06239	7.74814	-1.48309	25.01698	31.20224	1.77341	0.56389	0.23571	100.25525	0.0809552	0.45579	7.65555	61.0812	1.08265	0.13569	1785.89	58447.357	456.14	2905.27
1420.0	0.48562	0.51438	7.09268	7.71515	-1.90249	23.98253	31.67464	1.74181	0.57411	1.62495	96.82789	0.56802	0.43036	7.69209	386.20279	1.07433	0.0213977	1782.06612	56392.748	410.922	4745.843
1415.0	0.60302	0.39698	7.11353	7.69259	-2.18933	23.29721	31.97545	1.72033	0.58128	4.94003	94.79423	1.74746	0.41349	7.72931	986.24823	1.066	0.00835433	1778.6567	54983.756	281.798	5941.323
1410.0	0.68388	0.31612	7.12881	7.67619	-2.39792	22.81821	32.16685	1.70503	0.5865	9.98696	93.55889	3.56237	0.40173	7.76723	1745.67104	1.05765	0.00470595	1775.6031	53954.971	205.757	6757.117
1405.0	0.74191	0.25809	7.14059	7.66365	-2.55733	22.46895	32.29009	1.69348	0.5905	16.01207	92.81237	5.74653	0.39319	7.8062	2578.0075	1.04925	0.00317712	1772.85247	53163.103	158.374	7336.51
1400.0	0.78493	0.21507	7.15009	7.65359	-2.68529	22.20271	32.36667	1.68444	0.59367	22.25485	92.3801	8.02392	0.38678	7.84578	3436.23447	1.04084	0.00237651	1770.36507	52526.327	127.355	7761.325
1395.0	0.81772	0.18228	7.158	7.64526	-2.79122	21.99463	32.41077	1.67712	0.59626	28.21437	92.15886	10.20906	0.38183	7.88663	4300.00953	1.03236	0.00189344	1768.10159	51995.096	106.246	8081.103
1390.0	0.84327	0.15673	7.16479	7.63815	-2.88158	21.82768	32.43162	1.67102	0.59844	33.65149	92.08376	12.21105	0.37791	7.9287	5163.12016	1.0238	0.00157219	1766.0313	51538.159	91.3874	8327.093
1385.0	0.86359	0.13641	7.17079	7.63188	-2.96137	21.68858	32.43523	1.66581	0.60031	38.49619	92.11239	14.00121	0.37474	7.97123	6025.8168	1.01528	0.00134306	1764.13525	51135.044	80.623	8519.765
1380.0	0.88001	0.11999	7.17616	7.62629	-3.03237	21.5727	32.42611	1.66125	0.60196	42.7703	92.21744	15.58526	0.37214	8.01527	6892.66659	1.00666	0.00117061	1762.38427	50771.892	72.6304	8672.973
1375.0	0.89346	0.10654	7.18105	7.62122	-3.09684	21.47401	32.40711	1.6572	0.60343	46.52494	92.37998	16.98034	0.36997	8.06039	7768.33871	0.99799	0.00103551	1760.76336	50439.058	66.5668	8796.36
1370.0	0.90477	0.0952312	7.18565	7.61645	-3.15755	21.38509	32.38089	1.65351	0.60478	49.87985	92.58361	18.22968	0.36809	8.10621	8666.13213	0.98934	9.25419E-4	1759.26319	50128.267	62.1582	8898.198
1365.0	0.91441	0.0855895	7.19002	7.61195	-3.2147	21.30542	32.34903	1.6501	0.60602	52.89001	92.82027	19.3528	0.36647	8.1534	9592.16945	0.98062	8.33534E-4	1757.86366	49834.876	58.6782	8983.127
1362.45	0.91875	0.0812497	7.19216	7.60975	-3.24266	21.26789	32.33096	1.64845	0.60663	54.29831	92.95091	19.87896	0.36572	8.17771	10075.28601	0.97618	7.9233E-4	1757.17406	49691.205	 	9020.582
1360.0	0.92436	0.0756375	7.19494	7.60689	-3.27906	21.20495	32.31937	1.64657	0.60732	56.12207	93.04399	20.56079	0.36478	8.21012	10624.66112	0.97087	7.50236E-4	1757.22925	49536.197	59.7358	9073.83
1355.0	0.93427	0.0657319	7.20022	7.60148	-3.34786	21.09126	32.29025	1.64301	0.60864	59.46493	93.26719	21.81247	0.36309	8.2771	11760.44053	0.96007	6.75706E-4	1757.37993	49236.624	59.9146	9165.913
1350.0	0.94249	0.0575069	7.20511	7.59651	-3.41107	20.99247	32.2552	1.63975	0.60985	62.38056	93.52487	22.9062	0.36165	8.34554	12923.38582	0.94927	6.13012E-4	1757.56941	48955.701	56.1846	9239.827
1345.0	0.94942	0.0505751	7.20969	7.59187	-3.47009	20.9048	32.21557	1.63671	0.61098	64.95727	93.80865	23.87433	0.3604	8.41501	14124.51753	0.93854	5.59155E-4	1757.79415	48689.157	53.3088	9299.841
1340.0	0.95534	0.0446572	7.21405	7.58749	-3.52572	20.82612	32.17233	1.63384	0.61205	67.26182	94.11305	24.7414	0.3593	8.486	15373.95048	0.92781	5.12125E-4	1758.04631	48433.924	51.0466	9349.018
1335.0	0.96045	0.0395522	7.21822	7.58332	-3.57876	20.75423	32.12619	1.63112	0.61308	69.3432	94.43332	25.52547	0.35831	8.55845	16680.31553	0.9171	4.70553E-4	1758.3262	48187.786	49.2276	9389.574
1330.0	0.9649	0.0351012	7.22225	7.5793	-3.62982	20.68745	32.07769	1.6285	0.61406	71.24377	94.76648	26.24221	0.35743	8.6317	18053.26493	0.90649	4.33416E-4	1758.63318	47949.002	47.7568	9423.247
1325.0	0.96881	0.031186	7.22616	7.57543	-3.67908	20.62534	32.02727	1.62598	0.61501	72.99373	95.11014	26.90281	0.35662	8.70691	19501.55267	0.89586	3.99977E-4	1758.95651	47716.283	46.5438	9451.321
1320.0	0.97228	0.0277153	7.22999	7.57165	-3.72707	20.56638	31.97524	1.62353	0.61594	74.61803	95.46211	27.51653	0.35588	8.78286	21033.77837	0.88533	3.6968E-4	1759.30425	47488.632	45.5302	9474.791
1315.0	0.97538	0.0246179	7.23373	7.56797	-3.77389	20.51039	31.92188	1.62114	0.61685	76.13606	95.82118	28.09057	0.35519	8.86044	22659.19012	0.87483	3.42085E-4	1759.6674	47265.265	44.6734	9494.439
1310.0	0.97817	0.0218344	7.23741	7.56437	-3.81971	20.4569	31.86736	1.6188	0.61774	77.563	96.18619	28.63058	0.35455	8.93973	24387.12193	0.86434	3.16846E-4	1760.04285	47045.554	43.9422	9510.889
1305.0	0.98068	0.0193214	7.24104	7.56082	-3.86477	20.40517	31.81187	1.6165	0.61862	78.91278	96.55603	29.14176	0.35395	9.02022	26227.29864	0.85392	2.93685E-4	1760.43552	46828.998	43.3112	9524.641
1300.0	0.98296	0.0170387	7.24462	7.55734	-3.90907	20.35527	31.75554	1.61424	0.61949	80.19509	96.93007	29.6277	0.35338	9.10241	28190.10356	0.84353	2.72371E-4	1760.83522	46615.185	42.7626	9536.102
1295.0	0.98504	0.0149564	7.24816	7.5539	-3.95285	20.30652	31.69848	1.61201	0.62034	81.41989	97.3075	30.09216	0.35284	9.18592	30286.65507	0.8332	2.5271E-4	1761.25024	46403.778	42.2814	9545.609
1290.0	0.98695	0.0130488	7.25167	7.5505	-3.99611	20.25894	31.64078	1.6098	0.6212	82.59363	97.688	30.53752	0.35233	9.27078	32528.69215	0.82295	2.34542E-4	1761.67452	46194.495	41.8566	9553.44
1285.0	0.98871	0.0112922	7.25515	7.54713	-4.0389	20.21233	31.58253	1.60761	0.62204	83.72325	98.071	30.96639	0.35184	9.35745	34928.89157	0.81272	2.17726E-4	1762.10524	45987.103	41.4784	9559.825
1280.0	0.99033	0.00967002	7.25861	7.54379	-4.08132	20.1665	31.52376	1.60544	0.62288	84.8138	98.45622	31.38066	0.35137	9.4459	37501.12315	0.80252	2.02142E-4	1762.54341	45781.406	41.1394	9564.959
1275.0	0.99183	0.00816575	7.26205	7.54048	-4.12339	20.12129	31.46458	1.60328	0.62372	85.86994	98.84322	31.78207	0.35092	9.53576	40259.60518	0.7924	1.87685E-4	1762.99092	45577.235	40.8342	9569.007
1270.0	0.99323	0.00676597	7.26547	7.5372	-4.16517	20.07665	31.40497	1.60113	0.62456	86.89596	99.23195	32.17223	0.35048	9.62713	43221.17372	0.78234	1.7426E-4	1763.44189	45374.448	40.5574	9572.108
1265.0	0.99454	0.00545932	7.26887	7.53393	-4.2067	20.03238	31.34502	1.599	0.62539	87.89555	99.622	32.55253	0.35006	9.72032	46402.99551	0.77233	1.61785E-4	1763.89984	45172.922	40.3052	9574.383
1260.0	0.99576	0.00423546	7.27226	7.53069	-4.24797	19.98851	31.28478	1.59687	0.62623	88.87106	100.01315	32.92385	0.34965	9.81551	49823.1808	0.76236	1.5019E-4	1764.35935	44972.553	40.0738	9575.935
1255.0	0.99691	0.0030851	7.27564	7.52746	-4.28906	19.94488	31.22425	1.59475	0.62706	89.82581	100.4053	33.28744	0.34924	9.91223	53502.90333	0.75246	1.39404E-4	1764.82441	44773.249	39.8608	9576.852
1250.0	0.998	0.002001	7.27901	7.52424	-4.32995	19.90146	31.16348	1.59263	0.62789	90.76189	100.79828	33.64408	0.34885	10.01097	57464.39182	0.7426	1.29369E-4	1765.2883	44574.931	39.6636	9577.212
1245.0	0.99902	9.75909E-4	7.28237	7.52103	-4.3707	19.85814	31.10251	1.59051	0.62873	91.68168	101.19199	33.99467	0.34847	10.11176	61732.29434	0.73278	1.2003E-4	1765.75589	44377.53	39.4802	9577.078
1240.0	1.0	0.0	7.28573	7.51784	-4.41134	19.81481	31.0415	1.58839	0.62957	92.58839	101.58627	34.34044	0.3481	 	66333.47316	 	1.11336E-4	 	44180.992	39.3076	9576.514
1235.0	1.0	0.0	7.28818	7.51531	-4.44344	19.7975	30.97737	1.58642	0.63035	93.07821	101.98434	34.52742	0.34789	 	71003.47785	 	1.0367E-4	 	43957.197	44.759	 
1230.0	1.0	0.0	7.29062	7.51279	-4.47549	19.7802	30.91323	1.58444	0.63114	93.56873	102.38209	34.71473	0.34768	 	76037.93057	 	9.64848E-5	 	43766.89	38.0614	 
1225.0	1.0	0.0	7.29306	7.51028	-4.50749	19.76291	30.8491	1.58245	0.63193	94.05993	102.77952	34.90234	0.34747	 	81467.95238	 	8.97543E-5	 	43576.843	38.0094	 
1220.0	1.0	0.0	7.29551	7.50776	-4.53944	19.74563	30.78497	1.58046	0.63273	94.5518	103.17659	35.09027	0.34727	 	87327.54429	 	8.34524E-5	 	43387.065	37.9556	 
1215.0	1.0	0.0	7.29794	7.50525	-4.57134	19.72835	30.72083	1.57845	0.63353	95.04433	103.5733	35.27849	0.34706	 	93653.87395	 	7.75546E-5	 	43197.558	37.9014	 
1210.0	1.0	0.0	7.30038	7.50275	-4.60319	19.71109	30.65669	1.57644	0.63434	95.53749	103.96963	35.467	0.34685	 	100487.5929	 	7.20376E-5	 	43008.323	37.847	 
1205.0	1.0	0.0	7.30282	7.50025	-4.635	19.69383	30.59255	1.57442	0.63515	96.03127	104.36555	35.65581	0.34664	 	107873.1875	 	6.68793E-5	 	42819.359	37.7928	 
1200.0	1.0	0.0	7.30525	7.49775	-4.66675	19.67658	30.52841	1.57239	0.63597	96.52564	104.76105	35.84489	0.34644	 	115859.3682	 	6.20587E-5	 	42630.665	37.7388	 
1195.0	1.0	0.0	7.30768	7.49526	-4.69846	19.65935	30.46426	1.57035	0.6368	97.0206	105.15612	36.03425	0.34623	 	124499.5006	 	5.75559E-5	 	42442.24	37.685	 
1190.0	1.0	0.0	7.31011	7.49277	-4.73012	19.64212	30.40012	1.56831	0.63763	97.51613	105.55073	36.22387	0.34602	 	133852.0834	 	5.3352E-5	 	42254.083	37.6314	 
1185.0	1.0	0.0	7.31253	7.49028	-4.76173	19.6249	30.33597	1.56625	0.63847	98.0122	105.94488	36.41376	0.34581	 	143981.2793	 	4.94291E-5	 	42066.193	37.578	 
1180.0	1.0	0.0	7.31496	7.4878	-4.79329	19.60769	30.27182	1.56419	0.63931	98.50881	106.33854	36.60391	0.34561	 	154957.5042	 	4.57704E-5	 	41878.568	37.525	 
1175.0	1.0	0.0	7.31738	7.48532	-4.8248	19.59049	30.20767	1.56212	0.64016	99.00593	106.7317	36.7943	0.3454	 	166858.082	 	4.23597E-5	 	41691.207	37.4722	 
1170.0	1.0	0.0	7.3198	7.48285	-4.85626	19.57329	30.14351	1.56004	0.64101	99.50354	107.12435	36.98494	0.34519	 	179767.9726	 	3.91819E-5	 	41504.109	37.4196	 
1165.0	1.0	0.0	7.32222	7.48038	-4.88767	19.55611	30.07936	1.55795	0.64187	100.00164	107.51646	37.17582	0.34498	 	193780.5816	 	3.62227E-5	 	41317.274	37.367	 
1160.0	1.0	0.0	7.32463	7.47791	-4.91904	19.53894	30.0152	1.55585	0.64273	100.50021	107.90802	37.36693	0.34477	 	208998.6625	 	3.34684E-5	 	41130.699	37.315	 
1155.0	1.0	0.0	7.32705	7.47545	-4.95035	19.52177	29.95104	1.55374	0.64361	100.99922	108.29902	37.55826	0.34457	 	225535.3205	 	3.09062E-5	 	40944.384	37.263	 
1150.0	1.0	0.0	7.32946	7.47299	-4.98162	19.50462	29.88688	1.55163	0.64448	101.49867	108.68944	37.74982	0.34436	 	243515.1329	 	2.85241E-5	 	40758.327	37.2114	 
1145.0	1.0	0.0	7.33187	7.47053	-5.01284	19.48747	29.82272	1.5495	0.64537	101.99853	109.07926	37.94158	0.34415	 	263075.3976	 	2.63105E-5	 	40572.527	37.16	 
1140.0	1.0	0.0	7.33427	7.46808	-5.04401	19.47033	29.75855	1.54737	0.64626	102.4988	109.46848	38.13356	0.34394	 	284367.5275	 	2.42546E-5	 	40386.982	37.109	 
1135.0	1.0	0.0	7.33668	7.46563	-5.07513	19.4532	29.69439	1.54523	0.64715	102.99945	109.85707	38.32574	0.34374	 	307558.6077	 	2.23464E-5	 	40201.692	37.058	 
1130.0	1.0	0.0	7.33908	7.46319	-5.1062	19.43608	29.63022	1.54307	0.64806	103.50046	110.24503	38.51812	0.34353	 	332833.136	 	2.05762E-5	 	40016.656	37.0072	 
1125.0	1.0	0.0	7.34148	7.46075	-5.13723	19.41897	29.56605	1.54091	0.64897	104.00183	110.63233	38.71068	0.34332	 	360394.9699	 	1.89348E-5	 	39831.871	36.957	 
1120.0	1.0	0.0	7.34388	7.45831	-5.1682	19.40187	29.50187	1.53874	0.64988	104.50353	111.01896	38.90343	0.34311	 	390469.5057	 	1.7414E-5	 	39647.336	36.907	 
1115.0	1.0	0.0	7.34627	7.45588	-5.19913	19.38478	29.4377	1.53656	0.6508	105.00556	111.40492	39.09636	0.34291	 	423306.119	 	1.60055E-5	 	39463.05	36.8572	 
1110.0	1.0	0.0	7.34867	7.45345	-5.23001	19.3677	29.37352	1.53437	0.65173	105.50789	111.79018	39.28946	0.3427	 	459180.9007	 	1.47019E-5	 	39279.012	36.8076	 
1105.0	1.0	0.0	7.35106	7.45103	-5.26084	19.35062	29.30934	1.53217	0.65267	106.01051	112.17473	39.48273	0.34249	 	498399.7256	 	1.3496E-5	 	39095.22	36.7584	 
1100.0	1.0	0.0	7.35345	7.44861	-5.29163	19.33356	29.24516	1.52997	0.65361	106.5134	112.55856	39.67616	0.34228	 	541301.6969	 	1.23813E-5	 	38911.673	36.7094	 
1095.0	1.0	0.0	7.35583	7.44619	-5.32236	19.3165	29.18098	1.52775	0.65456	107.01655	112.94165	39.86975	0.34208	 	588263.0155	 	1.13514E-5	 	38728.369	36.6608	 
1090.0	1.0	0.0	7.35822	7.44378	-5.35305	19.29946	29.11679	1.52552	0.65551	107.51994	113.324	40.06349	0.34187	 	639701.3298	 	1.04005E-5	 	38545.306	36.6126	 
1085.0	1.0	0.0	7.3606	7.44137	-5.38368	19.28242	29.05261	1.52328	0.65648	108.02357	113.70558	40.25737	0.34166	 	696080.6287	 	9.52302E-6	 	38362.484	36.5644	 
1080.0	1.0	0.0	7.36298	7.43896	-5.41427	19.26539	28.98842	1.52103	0.65745	108.5274	114.08639	40.45139	0.34145	 	757916.7511	 	8.71387E-6	 	38179.9	36.5168	 
1075.0	1.0	0.0	7.36536	7.43656	-5.44482	19.24837	28.92423	1.51878	0.65842	109.03143	114.46641	40.64555	0.34125	 	825783.5927	 	7.96817E-6	 	37997.553	36.4694	 
1070.0	1.0	0.0	7.36774	7.43416	-5.47531	19.23136	28.86003	1.51651	0.65941	109.53565	114.84563	40.83983	0.34104	 	900320.1052	 	7.28139E-6	 	37815.441	36.4224	 
1065.0	1.0	0.0	7.37011	7.43177	-5.50576	19.21436	28.79584	1.51423	0.6604	110.04003	115.22404	41.03424	0.34083	 	982238.1943	 	6.64928E-6	 	37633.563	36.3756	 
1060.0	1.0	0.0	7.37248	7.42937	-5.53615	19.19737	28.73164	1.51195	0.6614	110.54456	115.60162	41.22876	0.34062	 	1072331.639	 	6.06787E-6	 	37451.917	36.3292	 
1055.0	1.0	0.0	7.37485	7.42699	-5.5665	19.18038	28.66744	1.50965	0.66241	111.04923	115.97836	41.4234	0.34042	 	1171486.173	 	5.53346E-6	 	37270.5	36.2834	 
1050.0	1.0	0.0	7.37722	7.4246	-5.59681	19.16341	28.60324	1.50734	0.66342	111.55403	116.35425	41.61814	0.34021	 	1280690.889	 	5.04256E-6	 	37089.312	36.2376	 
1045.0	1.0	0.0	7.37958	7.42222	-5.62706	19.14645	28.53903	1.50502	0.66444	112.05893	116.72928	41.81298	0.34	 	1401051.145	 	4.59195E-6	 	36908.351	36.1922	 
1040.0	1.0	0.0	7.38195	7.41985	-5.65727	19.12949	28.47483	1.5027	0.66547	112.56392	117.10344	42.00792	0.33979	 	1533803.196	 	4.17861E-6	 	36727.614	36.1474	 
1035.0	1.0	0.0	7.38431	7.41748	-5.68743	19.11254	28.41062	1.50036	0.66651	113.069	117.47671	42.20294	0.33959	 	1680330.776	 	3.7997E-6	 	36547.101	36.1026	 
1030.0	1.0	0.0	7.38667	7.41511	-5.71754	19.09561	28.34641	1.49801	0.66755	113.57413	117.84909	42.39805	0.33938	 	1842183.919	 	3.45261E-6	 	36366.808	36.0586	 
1025.0	1.0	0.0	7.38902	7.41274	-5.7476	19.07868	28.28219	1.49565	0.66861	114.07932	118.22055	42.59324	0.33917	 	2021100.346	 	3.1349E-6	 	36186.733	36.015	 
1020.0	1.0	0.0	7.39138	7.41038	-5.77761	19.06176	28.21798	1.49328	0.66967	114.58454	118.5911	42.7885	0.33896	 	2219029.765	 	2.84428E-6	 	36006.876	35.9714	 
1015.0	1.0	0.0	7.39373	7.40803	-5.80758	19.04485	28.15376	1.4909	0.67074	115.08978	118.96071	42.98383	0.33876	 	2438161.531	 	2.57864E-6	 	35827.233	35.9286	 
1010.0	1.0	0.0	7.39608	7.40567	-5.8375	19.02795	28.08954	1.48851	0.67181	115.59503	119.32938	43.17923	0.33855	 	2680956.138	 	2.33601E-6	 	35647.804	35.8858	 
1005.0	1.0	0.0	7.39842	7.40332	-5.86737	19.01105	28.02532	1.4861	0.6729	116.10027	119.69709	43.37468	0.33834	 	2950181.12	 	2.11456E-6	 	35468.584	35.844	 
1000.0	1.0	0.0	7.40077	7.40098	-5.8972	18.99417	27.96109	1.48369	0.674	116.60549	120.06384	43.57018	0.33813	 	3248952.008	 	1.91259E-6	 	35289.573	35.8022	 
995.0	1.0	0.0	7.40311	7.39864	-5.92698	18.9773	27.89686	1.48127	0.6751	117.11068	120.42962	43.76574	0.33793	 	3580779.096	 	1.72854E-6	 	35110.768	35.761	 
990.0	1.0	0.0	7.40545	7.3963	-5.95671	18.96043	27.83263	1.47883	0.67621	117.61581	120.79441	43.96133	0.33772	 	3949620.896	 	1.56094E-6	 	34932.166	35.7204	 
985.0	1.0	0.0	7.40779	7.39396	-5.98639	18.94358	27.7684	1.47638	0.67733	118.12088	121.1582	44.15696	0.33751	 	4359945.282	 	1.40844E-6	 	34753.766	35.68	 
980.0	1.0	0.0	7.41013	7.39163	-6.01602	18.92673	27.70417	1.47393	0.67846	118.62587	121.52098	44.35262	0.3373	 	4816799.514	 	1.26979E-6	 	34575.565	35.6402	 
975.0	1.0	0.0	7.41246	7.38931	-6.04561	18.90989	27.63993	1.47146	0.6796	119.13076	121.88275	44.54831	0.3371	 	5325890.494	 	1.14383E-6	 	34397.56	35.601	 
970.0	1.0	0.0	7.41479	7.38698	-6.07515	18.89307	27.57569	1.46898	0.68075	119.63556	122.24348	44.74401	0.33689	 	5893676.834	 	1.02949E-6	 	34219.749	35.5622	 
965.0	1.0	0.0	7.41712	7.38466	-6.10465	18.87625	27.51145	1.46648	0.6819	120.14023	122.60318	44.93974	0.33668	 	6527474.588	 	9.25795E-7	 	34042.128	35.5242	 
960.0	1.0	0.0	7.41945	7.38235	-6.13409	18.85944	27.4472	1.46398	0.68307	120.64477	122.96183	45.13547	0.33647	 	7235578.796	 	8.3182E-7	 	33864.697	35.4862	 
955.0	1.0	0.0	7.42177	7.38004	-6.16349	18.84263	27.38296	1.46147	0.68424	121.14916	123.31942	45.33121	0.33627	 	8027403.325	 	7.46729E-7	 	33687.45	35.4494	 
