T (C)	Fraction solid (wt)-TOTAL	Fraction liquid (wt)-LIQUID	Density (g/(cm)^3)-TOTAL	Molar volume (cm^3)-TOTAL	Volume change (%)-  	Average expansion coeff. (10e-6 1/K)-  	Thermal conductivity (W/(m*K))-TOTAL	Electrical resistivity (10e-6 Ohm*m)-TOTAL	Electrical conductivity (10e6 1/(Ohm*m))-TOTAL	Young's modulus (GPa)-TOTAL	Bulk modulus (GPa)-TOTAL	Shear modulus(GPa)-TOTAL	Poisson's ratio-TOTAL	Liquid viscosity (mPa s)-  	Total viscosity (mPa s)-  	Liquid diffusivity (10e-9 (m^2)/s)-  	Total diffusivity (10e-9 (m^2)/s)-  	Surface Tension (mN/m)-  	Enthalpy (J/mole)-TOTAL	Specific heat (J/(mole K))-TOTAL	Latent heat (J/mole)-TOTAL
1400.0	0.0	1.0	7.2767	7.99302	0.0	33.26758	29.23763	1.40203	0.71325	0.0	122.13404	0.0	0.5	7.00616	7.00616	1.16558	1.16558	1782.35048	43450.714	 	0.0
1395.0	0.0	1.0	7.28081	7.98852	-0.0563432	33.23309	29.15681	1.40172	0.71341	0.0	122.27592	0.0	0.5	7.08151	7.08151	1.14973	1.14973	1785.63065	43249.89	40.1648	0.0
1390.0	0.0	1.0	7.2849	7.98403	-0.11253	33.1988	29.07598	1.4014	0.71357	0.0	122.41779	0.0	0.5	7.15814	7.15814	1.13401	1.13401	1788.95079	43049.511	40.0758	0.0
1385.0	0.0	1.0	7.28899	7.97955	-0.16855	33.16469	28.99516	1.40108	0.71373	0.0	122.55966	0.0	0.5	7.23607	7.23607	1.11843	1.11843	1792.31107	42849.573	39.9876	0.0
1380.0	0.0	1.0	7.29307	7.97508	-0.22442	33.13078	28.91433	1.40076	0.7139	0.0	122.70154	0.0	0.5	7.31532	7.31532	1.10298	1.10298	1795.71163	42650.075	39.8996	0.0
1375.0	0.0	1.0	7.29714	7.97063	-0.28013	33.09706	28.83351	1.40044	0.71406	0.0	122.84341	0.0	0.5	7.39593	7.39593	1.08765	1.08765	1799.15259	42451.014	39.8122	0.0
1370.0	0.0	1.0	7.30121	7.96619	-0.33567	33.06354	28.75269	1.40012	0.71423	0.0	122.98528	0.0	0.5	7.47792	7.47792	1.07246	1.07246	1802.63405	42252.386	39.7256	0.0
1365.0	0.0	1.0	7.30527	7.96176	-0.39106	33.03022	28.67186	1.39979	0.71439	0.0	123.12716	0.0	0.5	7.56134	7.56134	1.05741	1.05741	1806.15607	42054.19	39.6392	0.0
1360.0	0.0	1.0	7.30932	7.95735	-0.44629	32.9971	28.59104	1.39947	0.71456	0.0	123.26903	0.0	0.5	7.6462	7.6462	1.04248	1.04248	1809.71868	41856.424	39.5532	0.0
1355.0	0.0	1.0	7.31337	7.95295	-0.50137	32.96418	28.51021	1.39914	0.71473	0.0	123.4109	0.0	0.5	7.73255	7.73255	1.02768	1.02768	1813.32189	41659.083	39.4682	0.0
1350.0	0.0	1.0	7.31741	7.94856	-0.55628	32.93147	28.42939	1.39881	0.7149	0.0	123.55278	0.0	0.5	7.82041	7.82041	1.01301	1.01301	1816.96567	41462.168	39.383	0.0
1345.0	0.0	1.0	7.32144	7.94418	-0.61103	32.89897	28.34857	1.39847	0.71507	0.0	123.69465	0.0	0.5	7.90982	7.90982	0.99848	0.99848	1820.64997	41265.673	39.299	0.0
1340.0	0.0	1.0	7.32546	7.93982	-0.66563	32.86668	28.26774	1.39814	0.71524	0.0	123.83652	0.0	0.5	8.00082	8.00082	0.98407	0.98407	1824.37471	41069.598	39.215	0.0
1335.0	0.0	1.0	7.32948	7.93547	-0.72006	32.8346	28.18692	1.3978	0.71541	0.0	123.9784	0.0	0.5	8.09344	8.09344	0.96979	0.96979	1828.13977	40873.94	39.1316	0.0
1334.45	0.0	1.0	7.32992	7.93499	-0.72605	32.83108	28.17801	1.39776	0.71543	0.0	123.99403	0.0	0.5	8.10375	8.10375	0.96823	0.96823	1828.5572	40852.4	39.08759	0.0010
1330.0	0.1254	0.8746	7.36903	7.89291	-1.25251	31.41374	28.56473	1.37502	0.72726	0.0238058	126.25009	0.00802036	0.48409	8.19268	14.44556	0.95507	0.54166	1827.41308	38883.288	442.6035	1795.406
1325.0	0.24329	0.75671	7.40649	7.85296	-1.7523	30.07721	28.9312	1.35337	0.7389	0.3454	128.40961	0.11757	0.4689	8.29537	82.71163	0.9403	0.0943056	1826.16544	37013.304	373.9968	3470.559
1320.0	0.34099	0.65901	7.4381	7.81957	-2.17003	28.97053	29.23695	1.33503	0.74905	1.36035	130.24354	0.46711	0.45614	8.40079	302.97432	0.9256	0.0256648	1824.964	35442.804	314.1	4846.638
1315.0	0.42268	0.57732	7.46508	7.79129	-2.52387	28.04304	29.49319	1.31928	0.75799	3.26834	131.8188	1.13065	0.44534	8.50915	736.25932	0.91094	0.010528	1823.81401	34109.728	266.6152	5985.7
1310.0	0.49151	0.50849	7.48828	7.76716	-2.82575	27.26162	29.70804	1.30561	0.76592	6.06886	133.18814	2.11293	0.43613	8.62049	1408.71994	0.89635	0.00548509	1822.71741	32966.5	228.6456	6935.319
1305.0	0.54995	0.45005	7.50841	7.74633	-3.08632	26.59643	29.88747	1.29368	0.77299	9.64087	134.39013	3.37513	0.42822	8.7349	2322.83915	0.88181	0.00331601	1821.67746	31976.307	198.0386	7732.307
1300.0	0.59987	0.40013	7.52599	7.7282	-3.31319	26.02621	30.03624	1.28319	0.77931	13.81371	135.45634	4.85921	0.42139	8.85242	3468.91378	0.86735	0.00221342	1820.69633	31110.413	173.1788	8405.396
1295.0	0.64279	0.35721	7.5415	7.71223	-3.51299	25.53228	30.15831	1.27393	0.78497	18.41049	136.41027	6.50337	0.41546	8.97331	4832.52372	0.85295	0.0015838	1819.77687	30346.201	152.8424	8977.201
1290.0	0.67989	0.32011	7.55523	7.69814	-3.68927	25.10497	30.25716	1.26572	0.79006	23.26996	137.27227	8.25013	0.41028	9.09743	6399.13996	0.83863	0.00119225	1818.91762	29665.732	136.0938	9465.659
1285.0	0.71211	0.28789	7.56747	7.68564	-3.84568	24.73403	30.33562	1.25841	0.79465	28.2572	138.05794	10.05069	0.40573	9.22496	8156.32349	0.82439	9.32398E-4	1818.11837	29054.674	122.2116	9885.101
1280.0	0.74025	0.25975	7.5785	7.67434	-3.98699	24.40573	30.39649	1.25186	0.79881	33.27095	138.77875	11.86792	0.40172	9.35616	10096.16441	0.81022	7.50834E-4	1817.38479	28501.495	110.6358	10247.054
1275.0	0.76492	0.23508	7.58844	7.66418	-4.11412	24.11782	30.44177	1.24597	0.80258	38.22471	139.44512	13.66964	0.39816	9.49079	12212.22353	0.79615	6.18735E-4	1816.71269	27996.861	100.9268	10560.854
1270.0	0.78664	0.21336	7.59749	7.65494	-4.22969	23.86278	30.4735	1.24066	0.80602	43.06511	140.06585	15.43561	0.39499	9.62927	14504.32251	0.78217	5.19275E-4	1816.10383	27533.163	92.7396	10834.104
1265.0	0.80586	0.19414	7.60577	7.64649	-4.33545	23.63568	30.49336	1.23583	0.80917	47.74894	140.64693	17.14925	0.39216	9.77157	16973.40761	0.76828	4.42299E-4	1815.55907	27104.167	85.7992	11073.037
1260.0	0.82291	0.17709	7.61338	7.63871	-4.43276	23.43271	30.50273	1.23144	0.81206	52.2524	141.19423	18.80109	0.38961	9.91781	19625.23888	0.75449	3.81291E-4	1815.07817	26704.737	79.886	11282.788
1257.15	0.83169	0.16831	7.61744	7.63457	-4.48457	23.32754	30.50331	1.22912	0.81359	54.70801	141.49203	19.70345	0.38828	10.00295	21214.34339	0.74668	3.52073E-4	1814.83402	26489.574	 	11389.892
1255.0	0.8398	0.1602	7.62071	7.63117	-4.52708	23.23725	30.51053	1.22711	0.81493	57.04043	141.75579	20.56157	0.38706	10.07198	22648.55149	0.74052	3.29316E-4	1815.30492	26305.689	79.8096	11492.538
1250.0	0.85721	0.14279	7.62793	7.62369	-4.62063	23.04263	30.52066	1.22269	0.81787	62.33132	142.3414	22.51171	0.38442	10.23526	26170.98541	0.72632	2.84059E-4	1816.41771	25898.33	81.4718	11710.978
1245.0	0.87233	0.12767	7.6345	7.61685	-4.70625	22.87101	30.51963	1.21871	0.82054	67.26381	142.88465	24.33413	0.38209	10.40175	29900.91635	0.71235	2.47809E-4	1817.54331	25522.358	75.1944	11898.41
1240.0	0.88554	0.11446	7.64054	7.61054	-4.7852	22.71883	30.509	1.21512	0.82296	71.84665	143.39255	26.03102	0.38002	10.57157	33851.26282	0.6986	2.18169E-4	1818.6826	25172.476	69.9764	12060.123
1235.0	0.89714	0.10286	7.64612	7.60468	-4.8585	22.58306	30.49018	1.21185	0.82518	76.10016	143.87091	27.60905	0.37817	10.74474	38041.89904	0.68507	1.93495E-4	1819.8355	24844.442	65.6068	12200.363
1230.0	0.90737	0.0926288	7.65132	7.59921	-4.92696	22.4614	30.46435	1.20886	0.82722	80.04873	144.32453	29.07654	0.37652	10.92135	42495.76402	0.67176	1.72641E-4	1821.0014	24534.824	61.9236	12322.557
1225.0	0.91643	0.0835683	7.65618	7.59406	-4.99133	22.35163	30.43234	1.20611	0.82911	83.70922	144.75655	30.43919	0.37502	11.10142	47234.58922	0.65866	1.54804E-4	1822.18125	24240.829	58.799	12429.496
1220.0	0.92449	0.0755059	7.66077	7.5892	-5.05224	22.25193	30.39507	1.20356	0.83087	87.11013	145.17041	31.70711	0.37367	11.28504	52288.84905	0.64578	1.39374E-4	1823.37432	23960.168	56.1322	12523.468
1215.0	0.93169	0.068305	7.66511	7.58456	-5.11019	22.16084	30.35316	1.20118	0.83251	90.27199	145.56847	32.88757	0.37243	11.47231	57688.26784	0.63312	1.25906E-4	1824.58078	23690.949	53.8438	12606.363
1210.79	0.93715	0.0628474	7.6686	7.58083	-5.15692	22.09014	30.31458	1.19931	0.83381	92.75538	145.89256	33.81586	0.37148	11.63284	62521.37232	0.62261	1.15844E-4	1825.60462	23472.236	 	12668.47
1210.0	0.93819	0.0618139	7.66929	7.58013	-5.16568	22.07685	30.30751	1.19895	0.83406	93.22539	145.95466	33.99165	0.3713	11.65467	63471.08109	0.62111	1.1405E-4	1825.4507	23430.464	52.097	12680.886
1205.0	0.94445	0.05555	7.67358	7.57575	-5.22045	21.99443	30.26067	1.19676	0.83559	96.13107	146.34007	35.0792	0.3702	11.79695	69759.54693	0.61156	1.03419E-4	1824.57609	23170.052	52.0824	12755.697
1200.0	0.95003	0.049968	7.67766	7.57156	-5.27291	21.91877	30.20981	1.19472	0.83702	98.81978	146.71139	36.08678	0.3692	11.94498	76491.57693	0.60193	9.39983E-5	1823.79479	22918.982	50.214	12821.524
1195.0	0.95503	0.0449733	7.68157	7.56753	-5.32332	21.84912	30.15572	1.1928	0.83837	101.31509	147.07085	37.02296	0.36827	12.09874	83713.23057	0.59227	8.55979E-5	1823.09916	22675.94	48.6084	12879.679
1190.0	0.95951	0.0404859	7.68533	7.56363	-5.37205	21.78435	30.09885	1.19098	0.83964	103.63753	147.41983	37.89525	0.36742	12.25827	91472.82643	0.58257	7.80699E-5	1822.48541	22439.838	47.2204	12931.25
1185.0	0.96356	0.0364372	7.68895	7.55987	-5.41913	21.72439	30.0395	1.18926	0.84086	105.80513	147.75989	38.71022	0.36663	12.4236	99824.04782	0.57285	7.12941E-5	1821.94457	22209.767	46.0142	12977.142
1180.0	0.96723	0.0327734	7.69245	7.55621	-5.4649	21.66821	29.978	1.18761	0.84203	107.83419	148.09215	39.47388	0.36589	12.59456	108825.4142	0.56314	6.51729E-5	1821.47368	21984.965	44.9604	13018.115
1176.7	0.96944	0.0305566	7.6947	7.55386	-5.49438	21.6333	29.93621	1.18657	0.84277	109.09712	148.30751	39.94959	0.36543	12.71053	115149.0576	0.55673	6.14538E-5	1821.18998	21839.308	 	13042.573
1176.7	0.96944	0.0305566	7.69469	7.55386	-5.49437	21.63332	29.9362	1.18657	0.84277	109.09661	148.30748	39.9494	0.36544	12.71053	115148.5163	0.55673	6.14541E-5	1821.18998	21839.31	 	13042.573
1175.0	0.97054	0.0294554	7.69586	7.55264	-5.50962	21.61499	29.91423	1.18605	0.84314	109.73328	148.41708	40.18932	0.3652	12.76904	118534.7715	0.55353	5.96286E-5	1821.09831	21764.619	44.0692	13054.982
1170.0	0.97363	0.026365	7.69923	7.54909	-5.55396	21.56259	29.84869	1.18455	0.8442	111.55155	148.73632	40.87494	0.36455	12.94512	129056.8626	0.54412	5.45779E-5	1820.8913	21546.975	43.5288	13089.493
1165.0	0.97645	0.0235483	7.70161	7.545	-5.60513	21.48702	29.73986	1.18476	0.84405	113.34158	149.07079	41.5519	0.36386	13.12711	140434.2463	0.53471	4.99825E-5	1823.59758	21295.89597	50.21581	13120.45
1160.0	0.97903	0.0209732	7.71041	7.53798	-5.693	21.28819	29.39356	1.19455	0.83713	115.7488	149.51012	42.47791	0.36246	13.31507	155163.351	0.52533	4.50805E-5	1826.32067	20875.6202	84.05515	13148.297
1155.0	0.98139	0.0186109	7.71867	7.53106	-5.77962	21.09182	29.06526	1.20383	0.83068	118.02128	149.92809	43.35353	0.36115	13.50905	171341.1937	0.51598	4.06817E-5	1829.06061	20467.22844	81.67835	13173.41
1150.0	0.98357	0.0164282	7.72642	7.52424	-5.86494	20.89807	28.7536	1.21262	0.82466	120.17758	150.32858	44.18559	0.35992	13.70727	189125.6553	0.50674	3.67271E-5	1831.81697	20069.55526	79.53464	13196.491
1145.0	0.98584	0.0141609	7.73383	7.51739	-5.95061	20.70139	28.4576	1.22093	0.81905	122.36494	150.72909	45.02954	0.35872	13.88561	208880.9385	0.49848	3.31368E-5	1834.58442	19675.29226	78.8526	13224.019
1140.0	0.98792	0.0120801	7.74078	7.51068	-6.0345	20.50902	28.17567	1.2288	0.8138	124.4319	151.1139	45.82814	0.35759	14.07067	230588.4157	0.49019	2.99115E-5	1837.36931	19291.99313	76.65983	13248.694
1135.0	0.98988	0.0101175	7.74732	7.50407	-6.11722	20.31893	27.90436	1.23635	0.80883	126.42947	151.49389	46.60063	0.35652	14.27152	254526.2138	0.48158	2.70024E-5	1840.16063	18914.995	75.39963	13274.778
1130.0	0.99179	0.00820614	7.75343	7.49751	-6.1993	20.12928	27.64009	1.24374	0.80402	128.42198	151.88574	47.37135	0.35548	14.50892	281042.7928	0.47201	2.43679E-5	1842.93385	18536.54854	75.68929	13309.69
1125.0	0.99344	0.00655987	7.75909	7.49122	-6.27801	19.94951	27.38687	1.25077	0.79951	130.24052	152.25502	48.07615	0.35452	14.75335	310042.7813	0.46254	2.20099E-5	1845.73036	18170.54428	73.20085	13339.225
1120.0	0.99487	0.00512687	7.76436	7.48517	-6.35373	19.77848	27.14528	1.25739	0.7953	131.91228	152.60536	48.7252	0.35364	15.00501	341802.9048	0.45316	1.98934E-5	1848.5503	17815.59606	70.98964	13364.468
1115.0	0.99613	0.00386827	7.76928	7.47933	-6.42677	19.6152	26.91447	1.26362	0.79138	133.46005	152.93969	49.32706	0.35281	15.26382	376628.519	0.44387	1.79891E-5	1851.39319	17470.60453	68.99831	13386.237
1110.0	0.9974	0.00259517	7.77383	7.47362	-6.49818	19.45609	26.69499	1.26942	0.78776	134.92608	153.26761	49.89841	0.35201	15.56422	415132.5243	0.43374	1.62618E-5	1854.26279	17131.83904	67.7531	13407.987
1105.0	0.99878	0.00121953	7.77795	7.468	-6.56847	19.29945	26.48918	1.27466	0.78452	136.36478	153.59404	50.4599	0.35122	15.92714	457883.0009	0.42232	1.46902E-5	1857.16119	16797.46825	66.87416	13431.29
1100.0	1.0	0.0	7.78182	7.46257	-6.63645	19.14951	26.29175	1.27957	0.78151	138.07158	153.90764	51.11936	0.35048	 	504836.966	 	1.32756E-5	 	16471.81856	65.12994	13451.565
1095.0	1.0	0.0	7.78663	7.45796	-6.69409	19.03476	26.09554	1.2845	0.77851	138.80116	154.1388	51.41098	0.34992	 	556302.2732	 	1.20035E-5	 	16182.36053	57.89161	 
1090.0	1.0	0.0	7.79134	7.45345	-6.75057	18.92311	25.90709	1.28911	0.77573	139.5086	154.36373	51.69388	0.34937	 	613516.0252	 	1.08444E-5	 	15894.60431	57.55124	 
1085.0	1.0	0.0	7.79597	7.44902	-6.80593	18.81439	25.72595	1.29343	0.77314	140.19522	154.58304	51.96859	0.34885	 	677167.7444	 	9.789E-6	 	15611.70984	56.57889	 
1080.0	1.0	0.0	7.80051	7.44468	-6.86022	18.7085	25.55168	1.29746	0.77074	140.86229	154.79728	52.23557	0.34834	 	748034.838	 	8.82899E-6	 	15333.46615	55.64874	 
1075.0	1.0	0.0	7.80498	7.44043	-6.91348	18.60529	25.38387	1.30121	0.76852	141.51096	155.00693	52.49528	0.34784	 	826994.5666	 	7.9565E-6	 	15059.67	54.75923	 
1070.0	1.0	0.0	7.80936	7.43625	-6.96577	18.50464	25.22214	1.30469	0.76646	142.14236	155.21245	52.74816	0.34737	 	915037.6895	 	7.16427E-6	 	14790.12574	53.90885	 
1065.0	1.0	0.0	7.81368	7.43214	-7.01712	18.40643	25.06612	1.30793	0.76457	142.75753	155.41424	52.9946	0.34691	 	1013283.932	 	6.44556E-6	 	14524.64443	53.09626	 
1060.0	1.0	0.0	7.81792	7.42811	-7.06758	18.31054	24.91545	1.31092	0.76282	143.35746	155.61267	53.23499	0.34646	 	1122999.962	 	5.7941E-6	 	14263.04455	52.31998	 
1055.0	1.0	0.0	7.82209	7.42414	-7.11718	18.21687	24.76982	1.31368	0.76122	143.9431	155.80807	53.46969	0.34603	 	1245619.831	 	5.20413E-6	 	14005.15114	51.57868	 
1050.0	1.0	0.0	7.8262	7.42024	-7.16597	18.1253	24.62891	1.31622	0.75975	144.51531	156.00076	53.69905	0.3456	 	1382768.388	 	4.67032E-6	 	13750.79594	50.87104	 
1045.0	1.0	0.0	7.83025	7.41641	-7.21398	18.03572	24.49243	1.31856	0.7584	145.07493	156.19101	53.92339	0.34519	 	1536288.474	 	4.18773E-6	 	13499.81776	50.19564	 
1040.0	1.0	0.0	7.83425	7.41263	-7.26125	17.94804	24.36012	1.32069	0.75718	145.62275	156.37907	54.14301	0.3448	 	1708271.81	 	3.75184E-6	 	13252.06163	49.55123	 
1035.0	1.0	0.0	7.83818	7.40891	-7.3078	17.86215	24.23172	1.32263	0.75607	146.15949	156.56518	54.35821	0.34441	 	1901094.666	 	3.35846E-6	 	13007.37917	48.93649	 
1030.0	1.0	0.0	7.84206	7.40524	-7.35368	17.77797	24.10698	1.3244	0.75506	146.68586	156.74954	54.56926	0.34403	 	2117459.231	 	3.00377E-6	 	12765.62844	48.35015	 
1025.0	1.0	0.0	7.84589	7.40163	-7.39891	17.6954	23.98569	1.32599	0.75416	147.2025	156.93235	54.77642	0.34367	 	2360440.975	 	2.68422E-6	 	12526.67363	47.79096	 
1020.0	1.0	0.0	7.84967	7.39806	-7.44353	17.61435	23.86764	1.32741	0.75335	147.71001	157.11378	54.97991	0.34331	 	2633543.289	 	2.3966E-6	 	12290.38568	47.25759	 
1015.0	1.0	0.0	7.85341	7.39454	-7.48755	17.53475	23.75263	1.32868	0.75263	148.20899	157.29399	55.17998	0.34296	 	2940761.05	 	2.13793E-6	 	12056.64086	46.74896	 
1010.0	1.0	0.0	7.8571	7.39107	-7.53101	17.4565	23.64048	1.3298	0.75199	148.69995	157.47312	55.37683	0.34262	 	3286653.493	 	1.90551E-6	 	11825.32117	46.26394	 
1005.0	1.0	0.0	7.86075	7.38764	-7.57393	17.37955	23.53103	1.33078	0.75144	149.1834	157.6513	55.57067	0.34229	 	3676429.077	 	1.69685E-6	 	11596.31469	45.8013	 
1000.0	1.0	0.0	7.86436	7.38425	-7.61633	17.30381	23.42411	1.33163	0.75096	149.65982	157.82866	55.76167	0.34196	 	4116043.61	 	1.50968E-6	 	11369.51508	45.35992	 
995.0	1.0	0.0	7.86793	7.3809	-7.65825	17.22921	23.31958	1.33234	0.75056	150.12964	158.0053	55.95002	0.34164	 	4612314.266	 	1.34196E-6	 	11144.82112	44.93879	 
990.0	1.0	0.0	7.87146	7.37758	-7.69969	17.15569	23.21731	1.33294	0.75022	150.59327	158.18132	56.13587	0.34133	 	5173051.383	 	1.19178E-6	 	10922.13597	44.53703	 
985.0	1.0	0.0	7.87496	7.37431	-7.74068	17.08318	23.11716	1.33341	0.74996	151.05111	158.3568	56.31938	0.34102	 	5807212.418	 	1.05743E-6	 	10701.36895	44.1534	 
980.0	1.0	0.0	7.87842	7.37107	-7.78123	17.01163	23.01901	1.33377	0.74975	151.5035	158.53182	56.5007	0.34072	 	6525080.655	 	9.37355E-7	 	10482.4335	43.78709	 
975.0	1.0	0.0	7.88185	7.36786	-7.82138	16.94098	22.92128	1.33412	0.74956	151.95079	158.70647	56.67996	0.34043	 	7338473.667	 	8.30133E-7	 	10265.24789	43.43712	 
970.0	1.0	0.0	7.88525	7.36468	-7.86113	16.87116	22.8268	1.33427	0.74947	152.39328	158.88081	56.85728	0.34014	 	8260985.874	 	7.34477E-7	 	10049.73462	43.10265	 
965.0	1.0	0.0	7.88862	7.36153	-7.9005	16.80213	22.73402	1.33433	0.74944	152.83128	159.05489	57.03278	0.33985	 	9308271.418	 	6.49219E-7	 	9835.81964	42.783	 
960.0	1.0	0.0	7.89196	7.35842	-7.93951	16.73384	22.64285	1.33429	0.74946	153.26507	159.22877	57.20657	0.33958	 	1.049837675E7	 	5.73298E-7	 	9623.43342	42.47724	 
955.0	1.0	0.0	7.89528	7.35533	-7.97816	16.66624	22.55321	1.33416	0.74953	153.69488	159.40249	57.37876	0.3393	 	1.185212641E7	 	5.05757E-7	 	9412.50942	42.1848	 
950.0	1.0	0.0	7.89857	7.35226	-8.01648	16.59929	22.46502	1.33395	0.74965	154.12097	159.57611	57.54944	0.33903	 	1.339357864E7	 	4.45728E-7	 	9202.98497	41.90489	 
945.0	1.0	0.0	7.90183	7.34923	-8.05448	16.53294	22.37822	1.33365	0.74982	154.54355	159.74967	57.71871	0.33876	 	1.515055561E7	 	3.92427E-7	 	8994.80114	41.63677	 
940.0	1.0	0.0	7.90507	7.34621	-8.09217	16.46715	22.29272	1.33327	0.75004	154.96284	159.92319	57.88663	0.3385	 	1.715526994E7	 	3.45147E-7	 	8787.90152	41.37992	 
935.0	1.0	0.0	7.90829	7.34323	-8.12955	16.40188	22.20848	1.33281	0.75029	155.37904	160.09672	58.0533	0.33824	 	1.944505658E7	 	3.03248E-7	 	8582.23266	41.13377	 
930.0	1.0	0.0	7.91149	7.34026	-8.16665	16.3371	22.12544	1.33228	0.7506	155.79232	160.27028	58.21879	0.33799	 	2.206323828E7	 	2.66157E-7	 	8377.74449	40.89763	 
925.0	1.0	0.0	7.91466	7.33732	-8.20348	16.27277	22.04353	1.33167	0.75094	156.20286	160.4439	58.38317	0.33774	 	2.506014146E7	 	2.33354E-7	 	8174.38879	40.67114	 
920.0	1.0	0.0	7.91781	7.33439	-8.24003	16.20885	21.96272	1.33099	0.75132	156.61082	160.6176	58.54649	0.33749	 	2.84942975E7	 	2.04373E-7	 	7972.12062	40.45363	 
915.0	1.0	0.0	7.92094	7.33149	-8.27633	16.14531	21.88294	1.33024	0.75174	157.01634	160.79141	58.70883	0.33725	 	3.243385755E7	 	1.78797E-7	 	7770.8966	40.2448	 
910.0	1.0	0.0	7.92406	7.32861	-8.31237	16.08213	21.80417	1.32943	0.7522	157.41958	160.96535	58.87024	0.337	 	3.695826906E7	 	1.56248E-7	 	7570.67616	40.04409	 
905.0	1.0	0.0	7.92715	7.32575	-8.34818	16.01927	21.72636	1.32856	0.7527	157.82065	161.13944	59.03077	0.33677	 	4.216025531E7	 	1.3639E-7	 	7371.42083	39.85107	 
900.0	1.0	0.0	7.93023	7.32291	-8.38375	15.95671	21.64946	1.32762	0.75323	158.2197	161.31369	59.19048	0.33653	 	4.814816797E7	 	1.18922E-7	 	7173.09351	39.66547	 
895.0	1.0	0.0	7.93329	7.32008	-8.41909	15.89441	21.57345	1.32662	0.7538	158.61682	161.48811	59.3494	0.3363	 	5.504877213E7	 	1.03571E-7	 	6975.65954	39.48679	 
890.0	1.0	0.0	7.93634	7.31727	-8.45422	15.83235	21.49829	1.32556	0.7544	159.01213	161.66273	59.50759	0.33607	 	6.30105623E7	 	9.00967E-8	 	6779.08586	39.31474	 
885.0	1.0	0.0	7.93936	7.31448	-8.48913	15.77051	21.42395	1.32444	0.75504	159.40573	161.83755	59.66508	0.33584	 	7.220769188E7	 	7.82831E-8	 	6583.34103	39.14897	 
