T (C)	Fraction solid (wt)-TOTAL	Fraction liquid (wt)-LIQUID	Density (g/(cm)^3)-TOTAL	Molar volume (cm^3)-TOTAL	Volume change (%)-  	Average expansion coeff. (10e-6 1/K)-  	Thermal conductivity (W/(m*K))-TOTAL	Electrical resistivity (10e-6 Ohm*m)-TOTAL	Electrical conductivity (10e6 1/(Ohm*m))-TOTAL	Young's modulus (GPa)-TOTAL	Bulk modulus (GPa)-TOTAL	Shear modulus(GPa)-TOTAL	Poisson's ratio-TOTAL	Liquid viscosity (mPa s)-  	Total viscosity (mPa s)-  	Liquid diffusivity (10e-9 (m^2)/s)-  	Total diffusivity (10e-9 (m^2)/s)-  	Surface Tension (mN/m)-  	Enthalpy (J/mole)-TOTAL	Specific heat (J/(mole K))-TOTAL	Latent heat (J/mole)-TOTAL
1400.0	0.0	1.0	7.43865	8.06024	0.0	34.42784	30.68105	1.33607	0.74846	0.0	122.73165	0.0	0.5	7.1602	7.1602	1.1405	1.1405	1837.39029	42411.242	 	0.0
1395.0	0.0	1.0	7.44287	8.05566	-0.0567818	34.39571	30.5974	1.33572	0.74866	0.0	122.86923	0.0	0.5	7.23782	7.23782	1.1249	1.1249	1841.72919	42212.048	39.8388	0.0
1390.0	0.0	1.0	7.44709	8.0511	-0.1134	34.3638	30.51374	1.33537	0.74886	0.0	123.00682	0.0	0.5	7.31676	7.31676	1.10943	1.10943	1846.10633	42013.289	39.7518	0.0
1385.0	0.0	1.0	7.45131	8.04655	-0.16987	34.33209	30.43008	1.33502	0.74905	0.0	123.1444	0.0	0.5	7.39705	7.39705	1.09409	1.09409	1850.52134	41814.961	39.6656	0.0
1380.0	0.0	1.0	7.45551	8.04201	-0.22617	34.3006	30.34643	1.33466	0.74925	0.0	123.28198	0.0	0.5	7.47871	7.47871	1.07888	1.07888	1854.97388	41617.062	39.5798	0.0
1375.0	0.0	1.0	7.45971	8.03748	-0.28232	34.26932	30.26277	1.3343	0.74946	0.0	123.41956	0.0	0.5	7.56178	7.56178	1.0638	1.0638	1859.46352	41419.59	39.4944	0.0
1370.0	0.0	1.0	7.4639	8.03297	-0.3383	34.23826	30.17911	1.33394	0.74966	0.0	123.55715	0.0	0.5	7.64628	7.64628	1.04885	1.04885	1863.98986	41222.541	39.4098	0.0
1365.0	0.0	1.0	7.46808	8.02847	-0.39413	34.20742	30.09546	1.33358	0.74986	0.0	123.69473	0.0	0.5	7.73225	7.73225	1.03403	1.03403	1868.55244	41025.914	39.3254	0.0
1360.0	0.0	1.0	7.47226	8.02398	-0.4498	34.1768	30.0118	1.33321	0.75007	0.0	123.83231	0.0	0.5	7.81973	7.81973	1.01934	1.01934	1873.15078	40829.705	39.2418	0.0
1355.0	0.0	1.0	7.47643	8.01951	-0.50531	34.1464	29.92814	1.33285	0.75027	0.0	123.9699	0.0	0.5	7.90874	7.90874	1.00479	1.00479	1877.78438	40633.911	39.1588	0.0
1350.0	0.0	1.0	7.48059	8.01505	-0.56066	34.11624	29.84449	1.33248	0.75048	0.0	124.10748	0.0	0.5	7.99932	7.99932	0.99036	0.99036	1882.45273	40438.531	39.076	0.0
1345.0	0.0	1.0	7.48474	8.0106	-0.61585	34.08631	29.76083	1.33211	0.75069	0.0	124.24506	0.0	0.5	8.09151	8.09151	0.97606	0.97606	1887.15526	40243.562	38.9938	0.0
1341.41	0.0	1.0	7.48772	8.00742	-0.65535	34.06497	29.70081	1.33184	0.75084	0.0	124.34378	0.0	0.5	8.15866	8.15866	0.96588	0.96588	1890.55009	40103.924	38.92348	0.0
1340.0	0.03556	0.96444	7.49975	7.99459	-0.81448	33.64089	29.80645	1.32596	0.75417	1.58961E-4	125.47971	5.31419E-5	0.49563	8.18168	8.60075	0.96232	0.91543	1890.82212	39509.953	420.51044	539.048
1335.0	0.15157	0.84843	7.53954	7.95246	-1.3372	32.25035	30.15515	1.30657	0.76537	0.0538261	129.18427	0.0181693	0.48124	8.26492	18.78428	0.94967	0.41785	1891.83895	37564.57	389.0766	2290.274
1330.0	0.24891	0.75109	7.57365	7.91658	-1.78232	31.07546	30.44747	1.29	0.77519	0.40001	132.31975	0.13615	0.46897	8.35028	78.03971	0.93704	0.10026	1892.9086	35910.34	330.846	3750.754
1325.0	0.33128	0.66872	7.60306	7.88597	-2.16212	30.08286	30.6934	1.27567	0.7839	1.27823	134.99816	0.43821	0.45846	8.4377	232.30193	0.92444	0.0335777	1894.03123	34489.924	284.0832	4977.819
1320.0	0.40152	0.59848	7.62869	7.85949	-2.49065	29.23327	30.90078	1.26315	0.79167	2.80277	137.3048	0.96688	0.4494	8.52727	512.44785	0.91187	0.0151738	1895.21426	33258.864	246.212	6015.927
1315.0	0.46185	0.53815	7.65118	7.83639	-2.77725	28.50084	31.07526	1.25211	0.79865	4.97561	139.30759	1.72582	0.44152	8.61903	934.07966	0.89933	0.0082984	1896.45621	32182.369	215.299	6899.865
1310.0	0.514	0.486	7.67107	7.81601	-3.03004	27.86285	31.22127	1.24233	0.80494	7.7286	141.05836	2.69358	0.43463	8.71316	1502.17837	0.88681	0.00514384	1897.76234	31232.981	189.8776	7657.09
1305.0	0.55936	0.44064	7.68877	7.79796	-3.25403	27.30556	31.34278	1.23361	0.81063	10.96113	142.60073	3.83637	0.42858	8.80951	2215.94045	0.87435	0.00347598	1899.13212	30388.855	168.8252	8309.445
1300.0	0.59902	0.40098	7.70458	7.78192	-3.45304	26.81846	31.4426	1.22579	0.8158	14.56158	143.96903	5.11564	0.42324	8.90809	3071.53433	0.86193	0.00249978	1900.56422	29632.479	151.2752	8874.44
1295.0	0.63388	0.36612	7.71886	7.76743	-3.63276	26.38535	31.52336	1.21877	0.8205	18.42675	145.1901	6.49517	0.4185	9.0092	4064.8065	0.84955	0.00188293	1902.0637	28949.711	136.5536	9366.213
1290.0	0.66466	0.33534	7.73177	7.75436	-3.79487	26.0018	31.58736	1.21242	0.8248	22.46267	146.28692	7.94147	0.41427	9.11268	5192.05461	0.83722	0.00146943	1903.62687	28329.056	124.131	9796.257
1285.0	0.69195	0.30805	7.74354	7.74245	-3.94272	25.65831	31.63661	1.20666	0.82873	26.5902	147.27704	9.42599	0.41047	9.2187	6450.50616	0.82495	0.00117897	1905.25617	27761.108	113.5896	10173.977
1280.0	0.71626	0.28374	7.75431	7.73158	-4.07755	25.35157	31.67281	1.20141	0.83235	30.7472	148.17697	10.92602	0.40706	9.3273	7839.85697	0.81273	9.66923E-4	1906.94797	27238.124	104.5968	10507.112
1275.0	0.73798	0.26202	7.76421	7.72155	-4.202	25.07397	31.69747	1.19662	0.83569	34.88527	148.99824	12.42371	0.40398	9.43844	9361.25386	0.80057	8.07171E-4	1908.70492	26753.692	96.8864	10802.073
1270.0	0.75746	0.24254	7.77334	7.71232	-4.31649	24.82462	31.71181	1.19221	0.83878	38.96291	149.75207	13.90355	0.40119	9.55219	11016.92992	0.78848	6.83651E-4	1910.52212	26302.475	90.2434	11064.195
1265.0	0.77498	0.22502	7.78183	7.70369	-4.42356	24.59601	31.71694	1.18816	0.84164	42.95261	150.44603	15.35514	0.39864	9.66872	12810.97149	0.77646	5.86008E-4	1912.40493	25880.005	84.494	11297.943
1260.0	0.79082	0.20918	7.78973	7.69567	-4.52308	24.38882	31.71402	1.1844	0.84431	46.83715	151.08945	16.77171	0.39631	9.78804	14750.89745	0.7645	5.07286E-4	1914.34614	25482.526	79.4958	11507.072
1255.0	0.80515	0.19485	7.79712	7.68813	-4.61655	24.1987	31.70379	1.18092	0.8468	50.59901	151.68736	18.14649	0.39418	9.91029	16843.10375	0.7526	4.42823E-4	1916.34856	25106.861	75.133	11694.755
1250.0	0.81817	0.18183	7.80406	7.68106	-4.70428	24.02484	31.68707	1.17768	0.84913	54.23117	152.2459	19.47649	0.39222	10.03545	19097.7444	0.74079	3.89267E-4	1918.40815	24750.315	71.3092	11863.686
1245.0	0.83002	0.16998	7.81059	7.67438	-4.78716	23.8647	31.66449	1.17465	0.85132	57.72849	152.76917	20.75948	0.39041	10.16361	21525.53299	0.72904	3.44229E-4	1920.52532	24410.589	67.9452	12016.162
1240.0	0.84084	0.15916	7.81677	7.66804	-4.86589	23.71622	31.63671	1.17181	0.85338	61.08901	153.26122	21.99444	0.38874	10.29493	24138.82558	0.71737	3.05951E-4	1922.70025	24085.714	64.975	12154.149
1235.0	0.85075	0.14925	7.82262	7.66201	-4.94067	23.57898	31.60419	1.16914	0.85533	64.31454	153.72558	23.1817	0.38718	10.4293	26952.56911	0.70579	2.73106E-4	1924.92936	23774.0	62.3428	12279.337
1230.0	0.85984	0.14016	7.82819	7.65625	-5.01206	23.45127	31.56749	1.16662	0.85718	67.40833	154.16541	24.32223	0.38574	10.5669	29983.12921	0.69429	2.44688E-4	1927.21248	23473.987	60.0026	12393.182
1225.0	0.86819	0.13181	7.83349	7.65076	-5.08028	23.33258	31.52688	1.16423	0.85893	70.3683	154.58272	25.415	0.38438	10.70792	33246.16698	0.68287	2.19938E-4	1929.54807	23184.41	57.9154	12496.948
1220.0	0.87589	0.12411	7.83855	7.64548	-5.14568	23.22187	31.48286	1.16197	0.86061	73.20746	154.98064	26.46461	0.38312	10.85224	36765.10122	0.67154	1.98223E-4	1931.93337	22904.171	56.0478	12591.729
1215.0	0.883	0.117	7.84341	7.64041	-5.20865	23.11799	31.43565	1.15982	0.8622	75.92239	155.36008	27.46962	0.38193	11.00015	40557.90362	0.66029	1.79084E-4	1934.37025	22632.314	54.3714	12678.481
1210.0	0.88957	0.11043	7.84807	7.63552	-5.26931	23.02068	31.3856	1.15777	0.86373	78.5223	155.72331	28.43325	0.38082	11.15157	44650.5673	0.64914	1.62123E-4	1936.855	22368.0	52.8628	12758.041
1205.0	0.89567	0.10433	7.85256	7.63079	-5.32799	22.92893	31.33289	1.1558	0.8652	81.00909	156.0714	29.35609	0.37977	11.30679	49067.42885	0.63807	1.47032E-4	1939.38878	22110.496	51.5008	12831.14
1200.0	0.90133	0.0986739	7.85688	7.62622	-5.3847	22.84276	31.27787	1.15392	0.86661	83.39357	156.40628	30.24196	0.37877	11.46563	53840.56107	0.6271	1.33544E-4	1941.96683	21859.154	50.2684	12898.422
1197.58	0.90391	0.0960909	7.85892	7.62405	-5.4116	22.80265	31.25035	1.15304	0.86727	84.50934	156.56405	30.65684	0.37831	11.54403	56288.7086	0.62182	1.27526E-4	1943.22787	21739.611	 	12928.904
1195.0	0.90654	0.0934632	7.86125	7.62156	-5.44253	22.75224	31.20609	1.15265	0.86757	85.68601	156.72024	31.09512	0.3778	11.64274	59033.72022	0.61546	1.21383E-4	1944.84409	21607.124	50.406	12966.737
1190.87	0.91056	0.0894432	7.86487	7.61765	-5.49099	22.67455	31.13541	1.15202	0.86804	87.52219	156.96458	31.77956	0.37702	11.80305	63672.24921	0.6054	1.12224E-4	1947.45133	21398.081	 	13024.404
1190.0	0.91141	0.0885913	7.86262	7.61535	-5.51958	22.59811	31.00406	1.15621	0.8649	87.9396	156.7832	31.94048	0.37662	11.83038	64695.60068	0.60364	1.10383E-4	1948.36756	21259.33781	69.55724	13037.426
1180.0	0.92044	0.0795593	7.8885	7.59892	-5.72335	22.12217	30.25238	1.17684	0.84973	92.87213	156.4465	33.82022	0.37303	12.12783	81393.82976	0.58481	8.71376E-5	1958.87695	20377.77131	88.15665	13187.315
1175.0	0.92449	0.0755131	7.89994	7.59114	-5.81987	21.89885	29.91087	1.18618	0.84304	84.11011	156.27665	30.66579	0.3714	12.28308	91108.2057	0.57543	7.75787E-5	1964.1354	19958.20483	83.9133	13253.346
1170.0	0.92827	0.071725	7.91052	7.58363	-5.91313	21.68444	29.5889	1.19495	0.83686	88.65919	156.11049	32.36044	0.36987	12.44343	101869.2213	0.56605	6.91441E-5	1969.39374	19551.09825	81.42132	13314.582
1165.0	0.93196	0.0680441	7.92039	7.57625	-6.0046	21.4741	29.28728	1.20307	0.83121	92.69625	155.95777	33.87015	0.36841	12.61544	113859.0448	0.5564	6.16486E-5	1974.6575	19153.24555	79.57054	13373.851
1160.0	0.9361	0.0639042	7.9298	7.56865	-6.09889	21.25247	29.01456	1.21016	0.82634	96.20351	155.85196	35.1901	0.36691	12.82987	127554.5175	0.5452	5.48381E-5	1979.9334	18753.36125	79.97686	13442.083
1155.0	0.9399	0.0600956	7.93851	7.56133	-6.18975	21.04041	28.755	1.21682	0.82181	99.19825	155.74898	36.32274	0.36551	13.05088	142701.8758	0.5341	4.88462E-5	1985.21229	18365.84866	77.50252	13504.534
1140.0	0.95019	0.0498081	7.96117	7.54067	-6.44603	20.44851	28.04006	1.23474	0.80989	106.45957	155.4815	39.09026	0.36171	13.716	198908.1174	0.50286	3.46755E-5	2001.06325	17251.64535	74.28022	13679.986
1135.0	0.95314	0.0468611	7.96767	7.53426	-6.52562	20.26767	27.82188	1.24002	0.80644	108.42423	155.40352	39.84447	0.36059	13.95416	221776.0801	0.49253	3.099E-5	2006.34102	16901.15196	70.09868	13728.747
1130.0	0.95584	0.0441572	7.97373	7.52806	-6.60249	20.09456	27.61261	1.24498	0.80323	110.21003	155.33115	40.53207	0.35954	14.20468	247052.6082	0.48212	2.77205E-5	2011.61239	16561.06021	68.01835	13772.258
1125.0	0.95834	0.0416566	7.97938	7.52207	-6.67687	19.92848	27.41138	1.24965	0.80022	111.85561	155.26517	41.16729	0.35855	14.46629	275014.7755	0.47172	2.48133E-5	2016.8744	16229.96961	66.21812	13811.676
1120.0	0.96067	0.0393323	7.98469	7.51624	-6.7492	19.76803	27.21754	1.25405	0.79742	113.38915	155.20602	41.76054	0.35761	14.73894	305965.5876	0.46134	2.22235E-5	2022.13349	15906.8807	64.61778	13847.771
1115.0	0.96284	0.0371607	7.98967	7.51057	-6.81952	19.61312	27.03052	1.2582	0.79479	114.83076	155.1541	42.31922	0.35672	15.02164	340243.5743	0.45103	1.99128E-5	2027.38358	15591.0144	63.17326	13881.104
1110.0	0.96488	0.0351244	7.99436	7.50505	-6.88803	19.46314	26.84984	1.2621	0.79233	116.19629	155.10954	42.8492	0.35587	15.3149	378220.3602	0.4408	1.78489E-5	2032.62579	15281.73123	61.85663	13912.108
1100.0	0.97572	0.0242816	8.00382	7.48981	-7.07708	18.97473	26.52835	1.26816	0.78854	123.03316	155.30074	45.46416	0.35308	15.94944	481080.0883	0.4202	1.39312E-5	2041.88992	14510.03466	77.16966	14139.236
1095.0	0.97747	0.0225323	8.00738	7.48453	-7.14261	18.83029	26.36345	1.27144	0.78651	124.38499	155.28653	45.98922	0.35233	16.30025	534497.8432	0.40966	1.24932E-5	2047.00892	14211.53872	59.69919	14171.084
1090.0	0.97907	0.020927	8.01073	7.4794	-7.20626	18.69115	26.20341	1.27454	0.7846	125.68	155.27742	46.49243	0.35162	16.66078	593617.4226	0.39933	1.12079E-5	2052.12731	13919.43563	58.42062	14200.071
1085.0	0.98055	0.0194483	8.0139	7.4744	-7.26825	18.55673	26.04794	1.27744	0.78282	126.93035	155.27357	46.97835	0.35095	17.03103	659080.6558	0.38922	1.00576E-5	2057.24756	13633.22184	57.24276	14226.544
1080.0	0.98192	0.0180832	8.01691	7.46953	-7.32866	18.4267	25.89677	1.28017	0.78115	128.14695	155.27511	47.45106	0.35031	17.41107	731608.4904	0.37932	9.02722E-6	2062.36613	13352.45388	56.15359	14250.797
1075.0	0.98318	0.0168164	8.01977	7.46478	-7.38762	18.30068	25.74964	1.28272	0.77959	129.33898	155.28214	47.91403	0.3497	17.80148	812007.71	0.36963	8.10335E-6	2067.48144	13076.73803	55.14317	14273.084
1070.0	0.98436	0.0156403	8.02251	7.46014	-7.44522	18.17842	25.60633	1.28512	0.77814	130.51188	155.29461	48.36931	0.34912	18.20251	901172.7507	0.36015	7.2745E-6	2072.59233	12805.72275	54.20306	14293.619
1065.0	0.98546	0.014544	8.02514	7.45559	-7.50161	18.05942	25.46661	1.28736	0.77678	131.67135	155.31252	48.81908	0.34856	18.61458	1000113.843	0.35086	6.53043E-6	2077.70251	12539.09637	53.32528	14312.589
1060.0	0.98648	0.0135189	8.02767	7.45114	-7.55685	17.94349	25.33028	1.28945	0.77552	132.82001	155.33582	49.26437	0.34803	19.0379	1109960.2	0.34178	5.86217E-6	2082.80884	12276.5736	52.50455	14330.157
1055.0	0.98744	0.0125595	8.03011	7.44677	-7.61102	17.83038	25.19714	1.2914	0.77435	133.95858	155.36447	49.70546	0.34752	19.47322	1231978.265	0.33289	5.26176E-6	2087.91026	12017.89926	51.73487	14346.464
1050.0	0.98834	0.0116591	8.03248	7.44249	-7.66418	17.71992	25.06702	1.29322	0.77326	135.08492	155.39831	50.14162	0.34703	19.92	1367582.605	0.3242	4.72218E-6	2093.00769	11762.8409	51.01167	14361.632
1045.0	0.98919	0.0108114	8.03478	7.43828	-7.71639	17.61195	24.93975	1.29491	0.77226	136.19653	155.4373	50.57192	0.34656	20.37983	1518371.325	0.31568	4.23715E-6	2098.09666	11511.18646	50.33089	14375.771
1040.0	0.98999	0.0100129	8.03702	7.43414	-7.76772	17.50618	24.81518	1.29647	0.77132	137.2897	155.48132	50.99505	0.34611	20.85254	1686138.971	0.30736	3.80109E-6	2103.17936	11262.74201	49.68889	14388.975
1035.0	0.99074	0.00925937	8.03922	7.43007	-7.81823	17.40247	24.68412	1.29839	0.77018	138.35928	155.53025	51.4091	0.34567	21.33848	1872900.758	0.29921	3.40902E-6	2108.25477	11017.32943	49.08252	14401.329
1030.0	0.99145	0.0085453	8.04137	7.42606	-7.86794	17.30078	24.56421	1.29974	0.76938	139.39912	155.58396	51.8118	0.34524	21.83852	2080919.658	0.29124	3.05651E-6	2113.31901	10774.78316	48.50925	14412.908
1025.0	0.9927	0.00730279	8.04355	7.4221	-7.91709	17.20018	24.4501	1.3008	0.76876	140.50465	155.64678	52.24154	0.34476	22.33467	2316777.049	0.28368	2.73481E-6	2118.38895	10526.362	49.68423	14432.371
1020.0	0.99447	0.0055269	8.04576	7.4182	-7.96553	17.10127	24.34161	1.30156	0.76831	141.70075	155.71825	52.70767	0.34421	22.8244	2584647.479	0.27653	2.44194E-6	2123.45665	10272.04678	50.86304	14459.653
1015.0	0.99607	0.00393194	8.04793	7.41437	-8.01304	17.00497	24.23504	1.30223	0.76791	143.11566	155.79236	53.25432	0.3437	23.32948	2883112.033	0.26949	2.18068E-6	2128.51555	10022.57022	49.89531	14483.947
1010.0	0.99751	0.00249281	8.05006	7.41061	-8.05969	16.911	24.12974	1.30284	0.76755	144.90553	155.86937	53.93983	0.34321	23.85115	3215958.511	0.26258	1.94739E-6	2133.56107	9777.42872	49.0283	14505.683
1005.0	0.99881	0.00118763	8.05216	7.40691	-8.10558	16.819	24.02588	1.30337	0.76724	146.50464	155.94945	54.5538	0.34275	24.38908	3587481.242	0.25578	1.73892E-6	2138.59394	9536.19712	48.24632	14525.218
1000.0	1.0	0.0	8.05423	7.40327	-8.15076	16.72887	23.92367	1.30382	0.76698	147.62392	156.03265	54.98855	0.34232	 	4002497.647	 	1.55251E-6	 	9298.51454	47.53652	14542.844
995.0	1.0	0.0	8.05766	7.40012	-8.1898	16.66188	23.81629	1.30456	0.76654	147.93286	156.06396	55.11587	0.34202	 	4490199.446	 	1.37845E-6	 	9369.67265	-14.23162	 
990.0	1.0	0.0	8.06105	7.397	-8.22849	16.59559	23.71072	1.3052	0.76617	148.24087	156.09946	55.24269	0.34172	 	5042002.799	 	1.22275E-6	 	9171.19637	39.69526	 
985.0	1.0	0.0	8.06442	7.39391	-8.26683	16.52999	23.60689	1.30575	0.76584	148.54807	156.13903	55.36904	0.34144	 	5666928.564	 	1.08361E-6	 	8974.02651	39.43397	 
980.0	1.0	0.0	8.06777	7.39085	-8.30484	16.46503	23.50472	1.30621	0.76557	148.85458	156.18255	55.495	0.34115	 	6375349.676	 	9.59369E-7	 	8778.11348	39.18261	 
975.0	1.0	0.0	8.07108	7.38781	-8.34253	16.40067	23.40413	1.30659	0.76535	149.16053	156.22992	55.62059	0.34087	 	7179206.023	 	8.48549E-7	 	8583.40996	38.9407	 
970.0	1.0	0.0	8.07438	7.3848	-8.37991	16.33687	23.30507	1.30689	0.76517	149.466	156.28102	55.74588	0.3406	 	8092255.442	 	7.49792E-7	 	8389.87088	38.70782	 
965.0	1.0	0.0	8.07765	7.38181	-8.41699	16.27362	23.20746	1.30711	0.76505	149.7711	156.33576	55.87091	0.34033	 	9130367.13	 	6.61869E-7	 	8197.45321	38.48354	 
960.0	1.0	0.0	8.08089	7.37884	-8.45378	16.21086	23.11125	1.30725	0.76496	150.07592	156.39402	55.9957	0.34007	 	1.03118652E7	 	5.83667E-7	 	8006.11588	38.26747	 
955.0	1.0	0.0	8.08412	7.3759	-8.49028	16.14858	23.01638	1.30732	0.76493	150.38052	156.45572	56.1203	0.33981	 	1.165793098E7	 	5.14182E-7	 	7815.81976	38.05922	 
950.0	1.0	0.0	8.08732	7.37298	-8.52652	16.08674	22.92279	1.30731	0.76493	150.685	156.52076	56.24475	0.33955	 	1.319307545E7	 	4.52502E-7	 	7626.52743	37.85847	 
945.0	1.0	0.0	8.0905	7.37008	-8.5625	16.02531	22.83044	1.30723	0.76498	150.98942	156.58904	56.36906	0.33929	 	1.494569324E7	 	3.97806E-7	 	7438.2032	37.66485	 
940.0	1.0	0.0	8.09366	7.3672	-8.59822	15.96427	22.73928	1.30709	0.76506	151.29384	156.66048	56.49328	0.33904	 	1.694871507E7	 	3.49353E-7	 	7250.81297	37.47805	 
935.0	1.0	0.0	8.0968	7.36434	-8.63369	15.90359	22.64927	1.30687	0.76519	151.59833	156.73499	56.61743	0.3388	 	1.924037485E7	 	3.06474E-7	 	7064.32416	37.29776	 
930.0	1.0	0.0	8.09993	7.3615	-8.66893	15.84324	22.56035	1.30659	0.76535	151.90293	156.81249	56.74154	0.33855	 	2.186511415E7	 	2.68568E-7	 	6878.70564	37.1237	 
925.0	1.0	0.0	8.10303	7.35868	-8.70393	15.7832	22.4725	1.30625	0.76555	152.2077	156.89291	56.86562	0.33831	 	2.487464942E7	 	2.35094E-7	 	6693.92765	36.9556	 
920.0	1.0	0.0	8.10612	7.35588	-8.73871	15.72345	22.38567	1.30584	0.76579	152.51269	156.97615	56.9897	0.33807	 	2.832923234E7	 	2.05564E-7	 	6509.96174	36.79318	 
915.0	1.0	0.0	8.10919	7.35309	-8.77327	15.66396	22.29984	1.30538	0.76606	152.81793	157.06216	57.1138	0.33784	 	3.229914103E7	 	1.79542E-7	 	6326.78071	36.63621	 
910.0	1.0	0.0	8.11225	7.35032	-8.80762	15.60471	22.21496	1.30485	0.76637	153.12347	157.15085	57.23794	0.3376	 	3.686644528E7	 	1.56637E-7	 	6144.35853	36.48444	 
905.0	1.0	0.0	8.11529	7.34757	-8.84176	15.54568	22.131	1.30426	0.76672	153.42935	157.24216	57.36214	0.33737	 	4.21270997E7	 	1.36498E-7	 	5962.67031	36.33764	 
900.0	1.0	0.0	8.11831	7.34484	-8.8757	15.48685	22.04794	1.30362	0.76709	153.73558	157.33603	57.48641	0.33715	 	4.819342872E7	 	1.1881E-7	 	5781.69221	36.19562	 
895.0	1.0	0.0	8.12132	7.34212	-8.90945	15.4282	21.96574	1.30292	0.7675	154.04222	157.43238	57.61076	0.33692	 	5.519707974E7	 	1.03293E-7	 	5601.40142	36.05816	 
890.0	1.0	0.0	8.12431	7.33941	-8.94301	15.36971	21.88438	1.30217	0.76795	154.34927	157.53115	57.73521	0.3367	 	6.329253779E7	 	8.96953E-8	 	5421.7761	35.92506	 
885.0	1.0	0.0	8.12729	7.33672	-8.97638	15.31135	21.80384	1.30136	0.76843	154.65678	157.63228	57.85977	0.33648	 	7.266131309E7	 	7.77944E-8	 	5242.79533	35.79615	 
880.0	1.0	0.0	8.13025	7.33405	-9.00957	15.25312	21.72408	1.3005	0.76893	154.96475	157.73572	57.98445	0.33626	 	8.351693746E7	 	6.73904E-8	 	5064.4389	35.67128	 
875.0	1.0	0.0	8.1332	7.33139	-9.04258	15.195	21.64509	1.29959	0.76948	155.27322	157.84141	58.10927	0.33605	 	9.611093651E7	 	5.83059E-8	 	4886.68758	35.55027	 
