T (C)	Fraction solid (wt)-TOTAL	Fraction liquid (wt)-LIQUID	Density (g/(cm)^3)-TOTAL	Molar volume (cm^3)-TOTAL	Volume change (%)-  	Average expansion coeff. (10e-6 1/K)-  	Thermal conductivity (W/(m*K))-TOTAL	Electrical resistivity (10e-6 Ohm*m)-TOTAL	Electrical conductivity (10e6 1/(Ohm*m))-TOTAL	Young's modulus (GPa)-TOTAL	Bulk modulus (GPa)-TOTAL	Shear modulus(GPa)-TOTAL	Poisson's ratio-TOTAL	Liquid viscosity (mPa s)-  	Total viscosity (mPa s)-  	Liquid diffusivity (10e-9 (m^2)/s)-  	Total diffusivity (10e-9 (m^2)/s)-  	Surface Tension (mN/m)-  	Enthalpy (J/mole)-TOTAL	Specific heat (J/(mole K))-TOTAL	Latent heat (J/mole)-TOTAL
1400.0	0.0	1.0	7.34053	7.69742	0.0	29.38648	30.6645	1.3368	0.74806	0.0	127.04537	0.0	0.5	7.14037	7.14037	1.14367	1.14367	1786.26042	55255.833	 	0.0
1395.0	0.0	1.0	7.3446	7.69316	-0.0554042	29.34258	30.59309	1.33591	0.74855	0.0	127.20394	0.0	0.5	7.21714	7.21714	1.12812	1.12812	1788.37264	55048.491	41.4684	0.0
1390.0	0.0	1.0	7.34866	7.6889	-0.11065	29.2988	30.52168	1.33502	0.74905	0.0	127.36251	0.0	0.5	7.2952	7.2952	1.11271	1.11271	1790.48395	54841.646	41.369	0.0
1385.0	0.0	1.0	7.35272	7.68466	-0.16573	29.25514	30.45027	1.33413	0.74955	0.0	127.52108	0.0	0.5	7.37459	7.37459	1.09742	1.09742	1792.59428	54635.296	41.27	0.0
1380.0	0.0	1.0	7.35677	7.68044	-0.22066	29.2116	30.37886	1.33324	0.75006	0.0	127.67965	0.0	0.5	7.45532	7.45532	1.08226	1.08226	1794.70352	54429.439	41.1714	0.0
1375.0	0.0	1.0	7.36081	7.67622	-0.27542	29.16818	30.30745	1.33233	0.75056	0.0	127.83822	0.0	0.5	7.53744	7.53744	1.06723	1.06723	1796.81161	54224.07	41.0738	0.0
1370.0	0.0	1.0	7.36484	7.67202	-0.33003	29.12488	30.23604	1.33143	0.75107	0.0	127.99679	0.0	0.5	7.62097	7.62097	1.05233	1.05233	1798.91845	54019.188	40.9764	0.0
1369.21	0.0	1.0	7.36547	7.67136	-0.33861	29.11808	30.2248	1.33129	0.75115	0.0	128.02175	0.0	0.5	7.63425	7.63425	1.05	1.05	1799.24999	53986.979	40.92006	0.0
1365.0	0.1341	0.8659	7.40089	7.63472	-0.8146	27.88202	30.5867	1.31216	0.7621	0.0287143	126.6429	0.00969217	0.48131	7.697	23.05502	1.03877	0.3468	1799.03432	51753.578	530.13639	2061.212
1360.0	0.26158	0.73842	7.4355	7.59918	-1.27623	26.69409	30.92331	1.29392	0.77285	0.42515	125.38164	0.14527	0.46331	7.77239	224.59303	1.02555	0.0354909	1798.77961	49600.316	430.6524	4010.556
1355.0	0.36271	0.63729	7.46384	7.57024	-1.65226	25.73779	31.18153	1.27927	0.78169	1.60123	124.44339	0.55259	0.44885	7.84886	852.68926	1.01245	0.00931945	1798.53422	47861.094	347.8444	5546.339
1350.0	0.44439	0.55561	7.48748	7.54637	-1.96237	24.96019	31.38072	1.26725	0.78911	3.66613	123.75327	1.27558	0.43705	7.92656	2028.34897	0.99945	0.00390573	1798.30021	46427.83	286.6528	6776.638
1345.0	0.51138	0.48862	7.50752	7.52621	-2.22429	24.31314	31.5339	1.25721	0.79541	6.51916	123.25245	2.28379	0.42727	8.00552	3775.05191	0.98654	0.0020921	1798.08173	45225.273	240.5114	7776.703
1340.0	0.56707	0.43293	7.52476	7.50896	-2.44842	23.76858	31.65059	1.2487	0.80083	9.97899	122.90092	3.51604	0.41906	8.08576	6068.85074	0.97374	0.00129734	1797.8806	44199.818	205.091	8600.135
1335.0	0.61389	0.38611	7.5398	7.49395	-2.64333	23.30322	31.73783	1.24141	0.80554	13.86024	122.6671	4.90766	0.4121	8.16738	8872.28449	0.96102	8.84663E-4	1797.69902	43312.494	177.4648	9285.904
1330.0	0.65367	0.34633	7.55308	7.48074	-2.81504	22.90076	31.80112	1.23509	0.80966	18.00127	122.52792	6.40099	0.40613	8.25036	12148.65194	0.94839	6.4407E-4	1797.53876	42534.443	155.6102	9862.863
1325.0	0.68779	0.31221	7.56491	7.46898	-2.96769	22.54997	31.84464	1.22955	0.8133	22.27113	122.46619	7.94846	0.40097	8.33479	15867.65524	0.93586	4.91577E-4	1797.40063	41843.954	138.0978	10352.723
1320.0	0.71729	0.28271	7.57556	7.45844	-3.10462	22.24185	31.87181	1.22466	0.81655	26.57386	122.46824	9.51465	0.39647	8.42071	20011.31588	0.92341	3.88569E-4	1797.28537	41224.445	123.9018	10772.062
1315.0	0.74298	0.25702	7.58523	7.44891	-3.22847	21.96925	31.88541	1.2203	0.81947	30.84112	122.52322	11.07386	0.39252	8.50821	24572.17359	0.91105	3.15453E-4	1797.19312	40663.083	112.2724	11133.71
1310.0	0.7655	0.2345	7.59408	7.44018	-3.34186	21.72495	31.88744	1.21638	0.82211	35.0218	122.62174	12.60663	0.38902	8.59722	29548.54893	0.89877	2.61501E-4	1797.12597	40149.815	102.6536	11447.719
1305.0	0.78536	0.21464	7.60224	7.43215	-3.44621	21.50511	31.87976	1.21283	0.82452	39.08572	122.75711	14.10109	0.38591	8.68782	34951.35023	0.88659	2.20379E-4	1797.08375	39676.676	94.6278	11722.049
1300.0	0.80299	0.19701	7.60981	7.4247	-3.54295	21.30586	31.86386	1.20959	0.82673	43.01444	122.92359	15.54974	0.38312	8.78	40798.47939	0.87451	1.88197E-4	1797.06686	39237.295	87.8762	11963.071
1295.0	0.8187	0.1813	7.61688	7.41775	-3.63323	21.12406	31.84084	1.20662	0.82876	46.79372	123.11649	16.94668	0.38062	8.87389	47110.56639	0.8625	1.62464E-4	1797.07612	38826.524	82.1542	12175.929
1293.51	0.82299	0.17701	7.61888	7.4158	-3.65869	21.07389	31.83258	1.20578	0.82934	47.87555	123.17953	17.34714	0.37993	8.90218	49071.45539	0.85894	1.55823E-4	1797.08347	38709.797	 	12233.766
1290.0	0.85414	0.14586	7.63022	7.40452	-3.80518	20.69956	31.88029	1.20128	0.83245	56.09652	123.28804	20.39947	0.37495	9.05393	59721.51036	0.84266	1.27749E-4	1798.81638	38105.503	144.2042	12699.481
1285.0	0.88728	0.11272	7.6429	7.39184	-3.96987	20.29321	31.91221	1.19624	0.83595	66.08087	123.48698	24.12428	0.36959	9.26759	74476.18081	0.8206	1.02112E-4	1801.06275	37420.146	137.0714	13187.81
1280.0	0.91073	0.089274	7.6526	7.38207	-4.09688	19.99579	31.91215	1.1924	0.83864	74.03474	123.73341	27.1042	0.36574	9.47792	88550.37213	0.79981	8.56071E-5	1803.08947	36884.096	107.21	13527.272
1275.0	0.9279	0.0721009	7.66037	7.37417	-4.19944	19.76913	31.89104	1.18935	0.84079	80.41341	124.0136	29.5014	0.36287	9.68509	102243.9674	0.78018	7.3903E-5	1804.93359	36443.473	88.1246	13771.743
1270.0	0.94089	0.0591122	7.66686	7.36752	-4.28586	19.58912	31.85568	1.18683	0.84258	85.60748	124.31776	31.45803	0.36066	9.88946	115857.4807	0.76159	6.50086E-5	1806.62885	36066.22	75.4506	13953.279
1265.0	0.95098	0.0490199	7.67247	7.36174	-4.36091	19.44189	31.81033	1.18467	0.84412	89.90895	124.63961	33.0814	0.3589	10.09166	129644.2051	0.74391	5.79072E-5	1808.19996	35732.529	66.7382	14091.684
1260.0	0.95901	0.0409893	7.67746	7.35658	-4.42795	19.31772	31.75779	1.18277	0.84547	93.53355	124.97461	34.45136	0.35747	10.29234	143820.0487	0.72704	5.20298E-5	1809.67023	35429.723	60.5612	14199.635
1255.0	0.96553	0.0344672	7.682	7.35187	-4.48912	19.21037	31.69994	1.18106	0.84669	96.63942	125.31944	35.62669	0.35628	10.49208	158572.2981	0.71087	4.70355E-5	1811.05676	35149.426	56.0594	14285.503
1250.0	0.97093	0.0290729	7.6862	7.34751	-4.54587	19.11566	31.63806	1.1795	0.84782	99.34247	125.67174	36.65063	0.35526	10.69163	174068.1556	0.69532	4.27081E-5	1812.37317	34885.953	52.6946	14354.972
1245.0	0.97546	0.0245404	7.69014	7.3434	-4.59919	19.03066	31.5731	1.17805	0.84886	101.72826	126.02983	37.55519	0.35438	10.89148	190462.474	0.68032	3.89038E-5	1813.63038	34635.341	50.1224	14412.004
1240.0	0.97932	0.0206799	7.69387	7.3395	-4.64985	18.95315	31.5057	1.17668	0.84985	103.86113	126.39228	38.36449	0.35361	11.09217	207904.3808	0.66581	3.55226E-5	1814.83752	34394.759	48.1164	14459.428
1235.0	0.98265	0.0173524	7.69745	7.33577	-4.69838	18.88157	31.43635	1.17538	0.85079	105.78949	126.75811	39.09669	0.35292	11.29419	226541.0147	0.65174	3.24926E-5	1816.00161	34162.147	46.5224	14499.302
1230.0	0.98555	0.0144521	7.70091	7.33217	-4.74517	18.8148	31.36544	1.17413	0.85169	107.55014	127.1266	39.76562	0.3523	11.49808	246521.4781	0.63806	2.97601E-5	1817.12742	33935.97	45.2354	14533.16
1225.0	0.9881	0.0119007	7.70426	7.32867	-4.79055	18.75185	31.29324	1.17293	0.85257	109.17264	127.49711	40.38242	0.35173	11.70419	268002.2896	0.62474	2.72837E-5	1818.21996	33715.071	44.1798	14562.156
1220.0	0.99036	0.00963713	7.70752	7.32527	-4.83474	18.6921	31.21997	1.17176	0.85342	110.6798	127.86902	40.95567	0.35121	11.91288	291148.1898	0.61175	2.50309E-5	1819.2827	33498.564	43.3014	14587.176
1215.0	0.99239	0.00761299	7.71071	7.32195	-4.87793	18.63498	31.14581	1.17061	0.85425	112.08943	128.24202	41.49209	0.35073	12.12457	316133.2666	0.59906	2.29754E-5	1820.31794	33285.754	42.562	14608.909
1210.0	0.99421	0.00579177	7.71384	7.31869	-4.92026	18.58011	31.07088	1.16949	0.85507	113.41654	128.61565	41.99735	0.35028	12.33964	343147.1949	0.58664	2.10956E-5	1821.32831	33076.095	41.9318	14627.901
1205.0	0.99586	0.00414226	7.71692	7.31548	-4.96187	18.52704	30.99531	1.16839	0.85588	114.67185	128.98986	42.47548	0.34986	12.55836	372389.332	0.57448	1.93735E-5	1822.31529	32869.151	41.3888	14644.587
1200.0	0.99736	0.00263969	7.71995	7.31233	-5.00284	18.47557	30.91919	1.16731	0.85667	115.86617	129.36429	42.93057	0.34946	12.78112	404084.8316	0.56255	1.77935E-5	1823.27912	32664.569	40.9164	14659.315
1195.0	0.99874	0.00126469	7.72295	7.30922	-5.04325	18.42544	30.8426	1.16623	0.85746	117.00716	129.73869	43.36552	0.34908	13.00816	438474.1963	0.55086	1.63423E-5	1824.22235	32462.06	40.5018	14672.374
1190.0	1.0	0.0	7.72591	7.30615	-5.08318	18.37644	30.76558	1.16517	0.85824	118.10189	130.11297	43.78299	0.34872	 	475822.6088	 	1.50083E-5	 	32261.39	40.134	14683.995
1185.0	1.0	0.0	7.72851	7.30369	-5.11508	18.35286	30.68377	1.16429	0.8589	118.57052	130.49617	43.96175	0.34856	 	514013.0932	 	1.38457E-5	 	32062.78243	39.72151	 
1180.0	1.0	0.0	7.73111	7.30123	-5.14701	18.32898	30.60186	1.1634	0.85955	119.03787	130.87675	44.1401	0.34841	 	555546.1621	 	1.27667E-5	 	31879.52735	36.65101	 
1175.0	1.0	0.0	7.73371	7.29878	-5.17889	18.30508	30.51995	1.16251	0.86021	119.50452	131.25582	44.31822	0.34825	 	600757.4288	 	1.17652E-5	 	31696.57992	36.58949	 
1170.0	1.0	0.0	7.73631	7.29633	-5.2107	18.28118	30.43804	1.16161	0.86087	119.97047	131.63336	44.49613	0.3481	 	650000.3616	 	1.08364E-5	 	31513.93959	36.52807	 
1165.0	1.0	0.0	7.7389	7.29389	-5.24245	18.25728	30.35613	1.16071	0.86154	120.43572	132.0094	44.67381	0.34795	 	703665.0044	 	9.97528E-6	 	31331.60581	36.46676	 
1160.0	1.0	0.0	7.74149	7.29145	-5.27413	18.23337	30.27422	1.1598	0.86221	120.90026	132.38393	44.85127	0.34779	 	762182.0262	 	9.1774E-6	 	31149.57808	36.40555	 
1155.0	1.0	0.0	7.74407	7.28901	-5.30576	18.20946	30.19231	1.15889	0.86289	121.3641	132.75696	45.02851	0.34764	 	826027.2494	 	8.43852E-6	 	30967.85583	36.34445	 
1150.0	1.0	0.0	7.74665	7.28658	-5.33732	18.18554	30.11039	1.15798	0.86357	121.82724	133.12849	45.20553	0.34748	 	895726.7143	 	7.75464E-6	 	30786.43852	36.28346	 
1145.0	1.0	0.0	7.74923	7.28416	-5.36882	18.16161	30.02848	1.15706	0.86426	122.28967	133.49853	45.38232	0.34733	 	971862.3487	 	7.12204E-6	 	30605.32564	36.22258	 
1140.0	1.0	0.0	7.75181	7.28174	-5.40025	18.13768	29.94656	1.15613	0.86495	122.7514	133.86709	45.5589	0.34717	 	1055078.319	 	6.53718E-6	 	30424.51661	36.1618	 
1139.58	1.0	0.0	7.75203	7.28154	-5.4029	18.13566	29.93966	1.15605	0.86501	122.79029	133.89809	45.57378	0.34716	 	1062438.337	 	6.48996E-6	 	30409.2898	 	 
1135.0	1.0	0.0	7.75447	7.27924	-5.43271	18.1101	29.86765	1.15508	0.86574	123.23097	134.24475	45.74251	0.34701	 	1147437.824	 	5.98972E-6	 	30237.1065	37.48202	 
1130.0	1.0	0.0	7.75713	7.27674	-5.46516	18.0823	29.78892	1.15403	0.86653	123.711	134.62163	45.92635	0.34684	 	1248713.005	 	5.48439E-6	 	30049.57657	37.50599	 
1125.0	1.0	0.0	7.75979	7.27425	-5.4975	18.0546	29.71008	1.15296	0.86733	124.18979	134.99673	46.10977	0.34668	 	1359691.812	 	5.0188E-6	 	29862.56668	37.40198	 
1120.0	1.0	0.0	7.76243	7.27177	-5.52974	18.02701	29.63114	1.1519	0.86813	124.66735	135.37007	46.29275	0.34651	 	1481377.634	 	4.59006E-6	 	29676.07182	37.29897	 
1115.0	1.0	0.0	7.76507	7.2693	-5.56187	17.99952	29.5521	1.15084	0.86893	125.14367	135.74166	46.47531	0.34635	 	1614885.11	 	4.19548E-6	 	29490.08702	37.19696	 
1110.0	1.0	0.0	7.76771	7.26683	-5.5939	17.97213	29.47297	1.14977	0.86974	125.61878	136.11151	46.65744	0.34618	 	1761453.441	 	3.83252E-6	 	29304.60735	37.09594	 
1105.0	1.0	0.0	7.77034	7.26438	-5.62583	17.94484	29.39375	1.1487	0.87055	126.09268	136.47963	46.83916	0.34602	 	1922461.137	 	3.49885E-6	 	29119.62788	36.99589	 
1100.0	1.0	0.0	7.77296	7.26193	-5.65766	17.91765	29.31445	1.14763	0.87136	126.56537	136.84602	47.02046	0.34585	 	2099442.971	 	3.19228E-6	 	28935.14374	36.89683	 
1095.0	1.0	0.0	7.77557	7.25948	-5.68939	17.89055	29.23505	1.14656	0.87218	127.03688	137.2107	47.20135	0.34569	 	2294108.479	 	2.91076E-6	 	28751.15006	36.79874	 
1090.0	1.0	0.0	7.77818	7.25705	-5.72102	17.86354	29.15557	1.14548	0.873	127.50721	137.57367	47.38183	0.34553	 	2508363.631	 	2.65241E-6	 	28567.64204	36.70161	 
1085.0	1.0	0.0	7.78079	7.25462	-5.75256	17.83662	29.07601	1.1444	0.87382	127.97636	137.93495	47.5619	0.34537	 	2744334.708	 	2.41545E-6	 	28384.61487	36.60543	 
1080.0	1.0	0.0	7.78338	7.2522	-5.78399	17.80978	28.99637	1.14332	0.87464	128.44435	138.29455	47.74158	0.3452	 	3004395.397	 	2.19824E-6	 	28202.06379	36.51022	 
1075.0	1.0	0.0	7.78597	7.24979	-5.81534	17.78303	28.91665	1.14224	0.87547	128.9112	138.65246	47.92085	0.34504	 	3291197.718	 	1.99927E-6	 	28019.9841	36.41594	 
1070.0	1.0	0.0	7.78856	7.24738	-5.84658	17.75636	28.83686	1.14115	0.87631	129.37689	139.00871	48.09974	0.34488	 	3607706.712	 	1.8171E-6	 	27838.37108	36.3226	 
1065.0	1.0	0.0	7.79113	7.24499	-5.87774	17.72978	28.75698	1.14006	0.87715	129.84146	139.3633	48.27823	0.34472	 	3957240.034	 	1.65044E-6	 	27657.22009	36.2302	 
1060.0	1.0	0.0	7.79371	7.2426	-5.9088	17.70326	28.67704	1.13897	0.87799	130.3049	139.71625	48.45633	0.34456	 	4343512.181	 	1.49804E-6	 	27476.52653	36.13871	 
1055.0	1.0	0.0	7.79627	7.24021	-5.93977	17.67683	28.59702	1.13787	0.87884	130.76723	140.06755	48.63406	0.3444	 	4770686.019	 	1.35879E-6	 	27296.2858	36.04815	 
1050.0	1.0	0.0	7.79883	7.23783	-5.97065	17.65046	28.51693	1.13677	0.87969	131.22846	140.41722	48.8114	0.34424	 	5243429.527	 	1.23163E-6	 	27116.49336	35.95849	 
1045.0	1.0	0.0	7.80139	7.23546	-6.00144	17.62417	28.43677	1.13567	0.88054	131.68858	140.76528	48.98837	0.34408	 	5766981.849	 	1.11559E-6	 	26937.14472	35.86973	 
1040.0	1.0	0.0	7.80394	7.2331	-6.03214	17.59794	28.35654	1.13456	0.8814	132.14763	141.11172	49.16496	0.34392	 	6347227.484	 	1.00976E-6	 	26758.23542	35.78186	 
1035.0	1.0	0.0	7.80648	7.23075	-6.06275	17.57178	28.27625	1.13345	0.88226	132.60559	141.45656	49.34119	0.34376	 	6990781.45	 	9.13311E-7	 	26579.76104	35.69488	 
1030.0	1.0	0.0	7.80902	7.2284	-6.09327	17.54569	28.19589	1.13233	0.88313	133.06249	141.7998	49.51705	0.3436	 	7705085.431	 	8.25474E-7	 	26401.71722	35.60876	 
1025.0	1.0	0.0	7.81155	7.22605	-6.12371	17.51966	28.11547	1.13122	0.884	133.51833	142.14146	49.69255	0.34344	 	8498517.767	 	7.45536E-7	 	26224.09961	35.52352	 
1020.0	1.0	0.0	7.81407	7.22372	-6.15407	17.49369	28.03499	1.13009	0.88488	133.97313	142.48155	49.86769	0.34329	 	9380520.644	 	6.72835E-7	 	26046.90395	35.43913	 
1015.0	1.0	0.0	7.8166	7.22139	-6.18433	17.46777	27.95445	1.12897	0.88576	134.42688	142.82007	50.04247	0.34313	 	1.036174176E7	 	6.06765E-7	 	25870.12599	35.35559	 
1010.0	1.0	0.0	7.81911	7.21906	-6.21452	17.44191	27.87385	1.12784	0.88665	134.8796	143.15703	50.2169	0.34297	 	1.145419999E7	 	5.46763E-7	 	25693.76156	35.27289	 
1005.0	1.0	0.0	7.82162	7.21675	-6.24462	17.41611	27.7932	1.1267	0.88755	135.3313	143.49245	50.39099	0.34281	 	1.267147354E7	 	4.92313E-7	 	25517.8065	35.19101	 
1000.0	1.0	0.0	7.82413	7.21444	-6.27463	17.39036	27.71248	1.12556	0.88844	135.78199	143.82632	50.56473	0.34266	 	1.402891429E7	 	4.42937E-7	 	25342.25674	35.10995	 
995.0	1.0	0.0	7.82663	7.21213	-6.30457	17.36466	27.63172	1.12442	0.88935	136.23167	144.15867	50.73813	0.3425	 	1.554389588E7	 	3.98197E-7	 	25167.10824	35.0297	 
990.0	1.0	0.0	7.82912	7.20983	-6.33442	17.33901	27.5509	1.12327	0.89026	136.68036	144.48949	50.91119	0.34234	 	1.72360973E7	 	3.57687E-7	 	24992.357	34.95025	 
985.0	1.0	0.0	7.83161	7.20754	-6.3642	17.3134	27.47003	1.12212	0.89117	137.12806	144.8188	51.08391	0.34218	 	1.912782696E7	 	3.21036E-7	 	24817.9991	34.87158	 
980.0	1.0	0.0	7.83409	7.20526	-6.39389	17.28784	27.38912	1.12096	0.89209	137.57478	145.14661	51.25631	0.34203	 	2.124439901E7	 	2.87902E-7	 	24644.03068	34.79369	 
975.0	1.0	0.0	7.83657	7.20298	-6.42351	17.26233	27.30815	1.1198	0.89302	138.02053	145.47292	51.42837	0.34187	 	2.361456425E7	 	2.57973E-7	 	24470.44789	34.71656	 
970.0	1.0	0.0	7.83905	7.2007	-6.45304	17.23685	27.22714	1.11863	0.89395	138.46532	145.79775	51.60011	0.34172	 	2.627100617E7	 	2.30958E-7	 	24297.24697	34.64018	 
965.0	1.0	0.0	7.84152	7.19844	-6.4825	17.21142	27.14608	1.11746	0.89489	138.90915	146.12109	51.77153	0.34156	 	2.925091367E7	 	2.06595E-7	 	24124.42422	34.56455	 
960.0	1.0	0.0	7.84398	7.19617	-6.51188	17.18602	27.06498	1.11628	0.89583	139.35204	146.44297	51.94263	0.3414	 	3.259664307E7	 	1.84642E-7	 	23951.97597	34.48965	 
955.0	1.0	0.0	7.84644	7.19392	-6.54118	17.16067	26.98383	1.1151	0.89678	139.79399	146.76338	52.11341	0.34125	 	3.635648033E7	 	1.64876E-7	 	23779.89865	34.41546	 
950.0	1.0	0.0	7.8489	7.19167	-6.5704	17.13534	26.90265	1.11391	0.89774	140.23501	147.08235	52.28387	0.34109	 	4.058552907E7	 	1.47094E-7	 	23608.1887	34.34199	 
945.0	1.0	0.0	7.85134	7.18942	-6.59955	17.11005	26.82142	1.11272	0.8987	140.67511	147.39986	52.45403	0.34094	 	4.534672758E7	 	1.31112E-7	 	23436.84266	34.26921	 
940.0	1.0	0.0	7.85379	7.18719	-6.62863	17.0848	26.74015	1.11152	0.89967	141.11429	147.71594	52.62388	0.34078	 	5.071204502E7	 	1.16759E-7	 	23265.85711	34.19711	 
935.0	1.0	0.0	7.85623	7.18495	-6.65763	17.05957	26.65885	1.11031	0.90065	141.55257	148.03059	52.79342	0.34063	 	5.676384694E7	 	1.03881E-7	 	23095.22869	34.12568	 
930.0	1.0	0.0	7.85866	7.18273	-6.68655	17.03437	26.57751	1.1091	0.90163	141.98994	148.34382	52.96267	0.34047	 	6.359650204E7	 	9.23365E-8	 	22924.95411	34.05492	 
925.0	1.0	0.0	7.8611	7.18051	-6.7154	17.0092	26.49613	1.10789	0.90262	142.42643	148.65563	53.13161	0.34032	 	7.131824353E7	 	8.19969E-8	 	22755.03013	33.9848	 
920.0	1.0	0.0	7.86352	7.17829	-6.74418	16.98406	26.41472	1.10666	0.90362	142.86202	148.96604	53.30025	0.34016	 	8.005332979E7	 	7.27449E-8	 	22585.45358	33.91531	 
915.0	1.0	0.0	7.86594	7.17608	-6.77288	16.95894	26.33328	1.10543	0.90462	143.29673	149.27505	53.4686	0.34001	 	8.994456894E7	 	6.44738E-8	 	22416.22135	33.84644	 
910.0	1.0	0.0	7.86836	7.17388	-6.80151	16.93385	26.2518	1.1042	0.90564	143.73058	149.58267	53.63666	0.33985	 	1.011562667E8	 	5.70865E-8	 	22247.33039	33.77819	 
905.0	1.0	0.0	7.87077	7.17168	-6.83007	16.90877	26.17029	1.10296	0.90665	144.16355	149.88891	53.80443	0.3397	 	1.138776662E8	 	5.0495E-8	 	22078.77771	33.71054	 
900.0	1.0	0.0	7.87318	7.16949	-6.85855	16.88372	26.08876	1.10171	0.90768	144.59566	150.19377	53.97191	0.33955	 	1.283269663E8	 	4.46193E-8	 	21910.5604	33.64346	 
895.0	1.0	0.0	7.87558	7.1673	-6.88697	16.85869	26.00719	1.10045	0.90872	145.02692	150.49727	54.13911	0.33939	 	1.44756041E8	 	3.93866E-8	 	21742.67558	33.57696	 
890.0	1.0	0.0	7.87798	7.16512	-6.91531	16.83368	25.92559	1.09919	0.90976	145.45734	150.7994	54.30603	0.33924	 	1.634559593E8	 	3.47314E-8	 	21575.12045	33.51103	 
885.0	1.0	0.0	7.88037	7.16294	-6.94358	16.80869	25.84397	1.09792	0.91081	145.8869	151.10018	54.47266	0.33908	 	1.847634495E8	 	3.05939E-8	 	21407.89229	33.44563	 
880.0	1.0	0.0	7.88276	7.16077	-6.97178	16.78371	25.76232	1.09665	0.91187	146.31564	151.39961	54.63902	0.33893	 	2.090685484E8	 	2.69205E-8	 	21240.98833	33.38079	 
875.0	1.0	0.0	7.88514	7.15861	-6.99991	16.75875	25.68064	1.09536	0.91294	146.74354	151.6977	54.8051	0.33878	 	2.368235251E8	 	2.36625E-8	 	21074.40597	33.31647	 
870.0	1.0	0.0	7.88752	7.15645	-7.02798	16.73381	25.59894	1.09408	0.91401	147.17061	151.99446	54.9709	0.33862	 	2.685534583E8	 	2.07759E-8	 	20908.14274	33.25264	 
865.0	1.0	0.0	7.8899	7.15429	-7.05597	16.70887	25.51722	1.09278	0.9151	147.59687	152.2899	55.13644	0.33847	 	3.048686726E8	 	1.82211E-8	 	20742.19617	33.18931	 
860.0	1.0	0.0	7.89227	7.15214	-7.08389	16.68395	25.43547	1.09147	0.91619	148.02231	152.58401	55.3017	0.33832	 	3.464794485E8	 	1.59623E-8	 	20576.56381	33.12647	 
