T (C)	Fraction solid (wt)-TOTAL	Fraction liquid (wt)-LIQUID	Density (g/(cm)^3)-TOTAL	Molar volume (cm^3)-TOTAL	Volume change (%)-  	Average expansion coeff. (10e-6 1/K)-  	Thermal conductivity (W/(m*K))-TOTAL	Electrical resistivity (10e-6 Ohm*m)-TOTAL	Electrical conductivity (10e6 1/(Ohm*m))-TOTAL	Young's modulus (GPa)-TOTAL	Bulk modulus (GPa)-TOTAL	Shear modulus(GPa)-TOTAL	Poisson's ratio-TOTAL	Liquid viscosity (mPa s)-  	Total viscosity (mPa s)-  	Liquid diffusivity (10e-9 (m^2)/s)-  	Total diffusivity (10e-9 (m^2)/s)-  	Surface Tension (mN/m)-  	Enthalpy (J/mole)-TOTAL	Specific heat (J/(mole K))-TOTAL	Latent heat (J/mole)-TOTAL
1400.0	0.0	1.0	6.90329	7.79193	0.0	31.12564	28.81328	1.42268	0.7029	0.0	122.37786	0.0	0.5	6.64566	6.64566	1.22881	1.22881	1787.01106	51560.334	 	0.0
1395.0	0.0	1.0	6.90727	7.78743	-0.0576744	31.08089	28.75287	1.42141	0.70353	0.0	122.5366	0.0	0.5	6.71584	6.71584	1.21233	1.21233	1789.0183	51354.5	41.1668	0.0
1390.0	0.0	1.0	6.91125	7.78295	-0.11519	31.03627	28.69246	1.42014	0.70416	0.0	122.69534	0.0	0.5	6.78719	6.78719	1.19599	1.19599	1791.02425	51149.137	41.0726	0.0
1385.0	0.0	1.0	6.91522	7.77848	-0.17253	30.99176	28.63205	1.41885	0.70479	0.0	122.85408	0.0	0.5	6.85974	6.85974	1.17979	1.17979	1793.02891	50944.245	40.9784	0.0
1380.0	0.0	1.0	6.91918	7.77403	-0.22972	30.94739	28.57164	1.41757	0.70543	0.0	123.01282	0.0	0.5	6.9335	6.9335	1.16371	1.16371	1795.03227	50739.819	40.8852	0.0
1375.0	0.0	1.0	6.92314	7.76958	-0.28674	30.90313	28.51123	1.41627	0.70608	0.0	123.17156	0.0	0.5	7.00852	7.00852	1.14778	1.14778	1797.03432	50535.857	40.7924	0.0
1370.0	0.0	1.0	6.92709	7.76515	-0.3436	30.85901	28.45082	1.41497	0.70673	0.0	123.3303	0.0	0.5	7.08481	7.08481	1.13197	1.13197	1799.03508	50332.357	40.7	0.0
1365.0	0.0	1.0	6.93103	7.76074	-0.4003	30.81501	28.39041	1.41367	0.70738	0.0	123.48904	0.0	0.5	7.1624	7.1624	1.1163	1.1163	1801.03452	50129.317	40.608	0.0
1360.0	0.0	1.0	6.93497	7.75633	-0.45683	30.77114	28.33	1.41236	0.70803	0.0	123.64778	0.0	0.5	7.24133	7.24133	1.10077	1.10077	1803.03265	49926.733	40.5168	0.0
1359.46	0.0	1.0	6.93539	7.75586	-0.4629	30.76643	28.3235	1.41222	0.70811	0.0	123.66485	0.0	0.5	7.2499	7.2499	1.0991	1.0991	1803.24751	49904.966	40.47039	0.0010
1355.0	0.22231	0.77769	6.9922	7.69282	-1.27187	28.58185	28.96915	1.37697	0.72623	0.19534	120.36959	0.066462	0.46953	7.27176	63.59025	1.0928	0.12497	1801.84299	46396.202	786.33932	3328.403
1350.0	0.39906	0.60094	7.0392	7.64149	-1.93073	26.81938	29.49039	1.34848	0.74158	2.09587	117.79107	0.72532	0.44479	7.29516	601.29847	1.08595	0.0131751	1800.11314	43561.738	566.8928	5961.188
1345.0	0.52501	0.47499	7.07418	7.60376	-2.41489	25.54138	29.86142	1.32762	0.75323	6.43986	116.0292	2.25667	0.42685	7.31768	1875.78549	1.07928	0.00421039	1798.27251	41498.922	412.5632	7822.776
1340.0	0.61781	0.38219	7.10117	7.57502	-2.78378	24.58335	30.12774	1.31182	0.7623	12.60441	114.81769	4.45882	0.41342	7.33936	3786.62657	1.07276	0.00207926	1796.35675	39938.809	312.0226	9182.108
1335.28	0.68452	0.31548	7.1215	7.55355	-3.0593	23.88101	30.30905	1.30016	0.76914	19.30292	114.02939	6.87601	0.40364	7.35892	6007.78218	1.06678	0.00130669	1794.51163	38781.107	 	10150.592
1335.0	0.6938	0.3062	7.12441	7.55045	-3.09902	23.77205	30.33937	1.29863	0.77004	20.42001	113.92142	7.28123	0.40224	7.36396	6361.57923	1.06586	0.00123381	1794.6078	38622.621	263.2376	10297.96
1330.0	0.83556	0.16444	7.16928	7.50352	-3.70135	22.12708	30.80399	1.27507	0.78427	44.62585	112.15776	16.16285	0.38051	7.44551	14246.17607	1.05091	5.49241E-4	1795.78094	36211.097	482.3048	12509.591
1325.0	0.90445	0.0955538	7.19276	7.47926	-4.01273	21.31124	30.99788	1.26314	0.79168	62.58224	111.43604	22.84526	0.3697	7.51809	20829.20897	1.03752	3.74482E-4	1796.42698	34964.322	249.355	13556.911
1320.0	0.94199	0.0580132	7.20702	7.46467	-4.1999	20.84991	31.07015	1.25626	0.79601	74.66395	111.19944	27.37617	0.36367	7.58336	26104.82992	1.02537	2.97867E-4	1796.6687	34206.771	151.5102	14115.446
1319.67	0.94359	0.0564058	7.2077	7.46398	-4.2088	20.82936	31.0715	1.25595	0.79621	75.22831	111.19922	27.58841	0.3634	7.58759	26392.83305	1.02459	2.94556E-4	1796.67901	34170.0	 	14139.108
1319.67	0.94359	0.0564058	7.2077	7.46398	-4.2088	20.82936	31.0715	1.25595	0.79621	75.22831	111.19922	27.58841	0.3634	7.58759	26392.83305	1.02459	2.94556E-4	1796.67901	34170.001	 	14139.107
1315.0	0.96629	0.0337148	7.21746	7.45406	-4.33615	20.53343	31.09336	1.25138	0.79912	83.59801	111.19563	30.74294	0.35963	7.63217	30793.88363	1.01562	2.51718E-4	1796.45275	33646.097	112.1348	14477.54
1310.0	0.98069	0.0193076	7.22497	7.44649	-4.4333	20.32898	31.07506	1.24818	0.80117	89.46717	111.35657	32.9614	0.35715	7.67435	34811.35996	1.00686	2.21967E-4	1796.01675	33238.594	81.5006	14686.895
1305.0	0.98972	0.0102792	7.23086	7.44059	-4.50896	20.18606	31.03437	1.24587	0.80265	93.48675	111.61141	34.48358	0.35553	7.71281	38483.52369	0.99867	2.00152E-4	1795.43494	32913.436	65.0316	14814.336
1300.0	0.99576	0.00424167	7.23585	7.43563	-4.57259	20.0775	30.98141	1.24404	0.80383	96.41756	111.92	35.59482	0.35438	7.74871	42033.96376	0.99089	1.82665E-4	1794.73821	32633.626	55.962	14896.859
1295.0	1.0	0.0	7.24029	7.43125	-4.6289	19.98978	30.92094	1.24251	0.80482	98.66848	112.26132	36.44902	0.35351	 	45591.85301	 	1.67875E-4	 	32380.901	50.545	14952.723
1290.0	1.0	0.0	7.24303	7.42843	-4.665	19.96144	30.84569	1.24157	0.80543	99.15525	112.68165	36.63353	0.35334	 	48627.21071	 	1.56895E-4	 	32186.49149	38.8819	 
1285.0	1.0	0.0	7.24575	7.42564	-4.70082	19.93374	30.77048	1.24063	0.80604	99.64135	113.10072	36.81783	0.35317	 	51886.76639	 	1.46568E-4	 	31997.67442	37.76341	 
1280.0	1.0	0.0	7.24847	7.42286	-4.73656	19.90604	30.69528	1.23968	0.80666	100.12675	113.51809	37.00191	0.35299	 	55387.94651	 	1.36863E-4	 	31809.18042	37.6988	 
1275.77	1.0	0.0	7.25076	7.42051	-4.76671	19.88263	30.63169	1.23887	0.80719	100.53655	113.86964	37.15736	0.35285	 	58550.81297	 	1.29117E-4	 	31650.07626	 	 
1275.0	1.0	0.0	7.25119	7.42007	-4.77236	19.87793	30.62022	1.23871	0.80729	100.6128	113.93505	37.18628	0.35282	 	59157.15629	 	1.2773E-4	 	31620.34362	37.76736	 
1270.0	1.0	0.0	7.25397	7.41723	-4.80883	19.84758	30.54598	1.23771	0.80794	101.10553	114.35711	37.37323	0.35265	 	63249.25379	 	1.1908E-4	 	31428.24842	38.41904	 
1265.0	1.0	0.0	7.25674	7.41439	-4.8452	19.81729	30.47172	1.23671	0.8086	101.59738	114.77732	37.55989	0.35247	 	67652.57482	 	1.10969E-4	 	31236.5767	38.33434	 
1260.0	1.0	0.0	7.25951	7.41157	-4.88147	19.78708	30.39742	1.2357	0.80926	102.08835	115.1957	37.74627	0.3523	 	72392.90001	 	1.03365E-4	 	31045.32616	38.25011	 
1255.0	1.0	0.0	7.26227	7.40875	-4.91763	19.75693	30.3231	1.23469	0.80992	102.57844	115.61225	37.93237	0.35212	 	77498.31574	 	9.62411E-5	 	30854.49455	38.16632	 
1250.0	1.0	0.0	7.26503	7.40594	-4.95369	19.72685	30.24874	1.23368	0.81059	103.06766	116.02699	38.11819	0.35195	 	82999.44181	 	8.95683E-5	 	30664.0796	38.08299	 
1245.23	1.0	0.0	7.26765	7.40327	-4.98799	19.69822	30.1778	1.23271	0.81122	103.53348	116.42089	38.29516	0.35178	 	88645.9232	 	8.36005E-5	 	30482.84152	 	 
1245.0	1.0	0.0	7.26783	7.40308	-4.99033	19.69472	30.17609	1.23259	0.8113	103.57344	116.45139	38.31046	0.35176	 	88925.93889	 	8.33245E-5	 	30471.33671	38.54858	 
1244.74	1.0	0.0	7.26803	7.40288	-4.99292	19.69086	30.1742	1.23246	0.81139	103.61762	116.4851	38.32738	0.35174	 	89236.90781	 	8.30202E-5	 	30458.60748	 	 
1240.0	1.0	0.0	7.27066	7.4002	-5.02735	19.66118	30.1044	1.23145	0.81205	104.08817	116.88085	38.50625	0.35158	 	95328.77925	 	7.7472E-5	 	30276.93412	38.88052	 
1235.0	1.0	0.0	7.27343	7.39738	-5.06351	19.63002	30.03078	1.23039	0.81275	104.58293	117.29595	38.69437	0.3514	 	102242.6624	 	7.19945E-5	 	30085.95535	38.19575	 
1230.0	1.0	0.0	7.27619	7.39457	-5.09955	19.59897	29.9571	1.22933	0.81345	105.07656	117.70907	38.88211	0.35122	 	109706.3687	 	6.6874E-5	 	29895.45995	38.09908	 
1225.0	1.0	0.0	7.27895	7.39177	-5.13547	19.56804	29.88337	1.22826	0.81416	105.56905	118.12021	39.06946	0.35104	 	117767.449	 	6.20893E-5	 	29705.44326	38.00334	 
1220.0	1.0	0.0	7.2817	7.38899	-5.17128	19.53722	29.80958	1.2272	0.81487	106.06041	118.5294	39.25645	0.35087	 	126477.9032	 	5.76203E-5	 	29515.90067	37.90852	 
1215.0	1.0	0.0	7.28444	7.3862	-5.20696	19.5065	29.73574	1.22612	0.81558	106.55066	118.93663	39.44305	0.35069	 	135894.6106	 	5.3448E-5	 	29326.82769	37.8146	 
1210.0	1.0	0.0	7.28717	7.38343	-5.24254	19.47589	29.66185	1.22505	0.81629	107.0398	119.34194	39.62929	0.35051	 	146079.832	 	4.95543E-5	 	29138.21985	37.72157	 
1205.0	1.0	0.0	7.2899	7.38067	-5.278	19.44539	29.58791	1.22397	0.81701	107.52784	119.74532	39.81515	0.35034	 	157101.7519	 	4.59224E-5	 	28950.07271	37.62943	 
1200.0	1.0	0.0	7.29262	7.37792	-5.31334	19.41499	29.51391	1.22289	0.81774	108.01478	120.14681	40.00065	0.35016	 	169035.083	 	4.2536E-5	 	28762.38196	37.53815	 
1195.0	1.0	0.0	7.29534	7.37517	-5.34858	19.38468	29.43987	1.2218	0.81846	108.50064	120.5464	40.18579	0.34999	 	181961.731	 	3.93801E-5	 	28575.1433	37.44773	 
1190.0	1.0	0.0	7.29804	7.37243	-5.3837	19.35448	29.36577	1.22071	0.81919	108.98542	120.94412	40.37056	0.34981	 	195971.5548	 	3.64403E-5	 	28388.35247	37.35817	 
1185.0	1.0	0.0	7.30075	7.3697	-5.41872	19.32437	29.29163	1.21962	0.81993	109.46913	121.33997	40.55498	0.34964	 	211163.1686	 	3.37032E-5	 	28202.00533	37.26943	 
1180.0	1.0	0.0	7.30344	7.36698	-5.45363	19.29435	29.21745	1.21852	0.82066	109.95178	121.73398	40.73905	0.34946	 	227644.8836	 	3.11558E-5	 	28016.09775	37.18152	 
1175.0	1.0	0.0	7.30613	7.36427	-5.48842	19.26442	29.14321	1.21742	0.82141	110.43338	122.12615	40.92276	0.34929	 	245535.7147	 	2.87863E-5	 	27830.62566	37.09442	 
1170.0	1.0	0.0	7.30881	7.36157	-5.52312	19.23458	29.06894	1.21632	0.82215	110.91392	122.5165	41.10612	0.34912	 	264966.5009	 	2.65832E-5	 	27645.58507	37.00812	 
1165.0	1.0	0.0	7.31149	7.35887	-5.5577	19.20483	28.99462	1.21521	0.8229	111.39343	122.90503	41.28913	0.34894	 	286081.1951	 	2.45359E-5	 	27460.97203	36.92261	 
1160.0	1.0	0.0	7.31416	7.35619	-5.59219	19.17516	28.92025	1.2141	0.82365	111.87191	123.29178	41.4718	0.34877	 	309038.2684	 	2.26342E-5	 	27276.78264	36.83788	 
1155.0	1.0	0.0	7.31682	7.35351	-5.62656	19.14557	28.84585	1.21299	0.82441	112.34936	123.67674	41.65413	0.3486	 	334012.2413	 	2.08688E-5	 	27093.01306	36.75391	 
1150.0	1.0	0.0	7.31948	7.35084	-5.66084	19.11607	28.7714	1.21187	0.82517	112.8258	124.05993	41.83612	0.34843	 	361195.4625	 	1.92307E-5	 	26909.65953	36.67071	 
1145.0	1.0	0.0	7.32214	7.34818	-5.69501	19.08664	28.69692	1.21075	0.82594	113.30122	124.44136	42.01777	0.34825	 	390800.0639	 	1.77115E-5	 	26726.71831	36.58824	 
1140.0	1.0	0.0	7.32478	7.34552	-5.72908	19.0573	28.62239	1.20962	0.82671	113.77565	124.82105	42.19909	0.34808	 	423060.1085	 	1.63032E-5	 	26544.18575	36.50651	 
1135.0	1.0	0.0	7.32742	7.34287	-5.76306	19.02803	28.54783	1.20849	0.82748	114.24908	125.19901	42.38008	0.34791	 	458234.0537	 	1.49985E-5	 	26362.05821	36.42551	 
1130.0	1.0	0.0	7.33006	7.34023	-5.79693	18.99883	28.47323	1.20735	0.82826	114.72152	125.57524	42.56074	0.34774	 	496607.411	 	1.37904E-5	 	26180.33214	36.34521	 
1125.0	1.0	0.0	7.33269	7.3376	-5.8307	18.9697	28.39859	1.20621	0.82904	115.19298	125.94978	42.74108	0.34757	 	538495.8954	 	1.26724E-5	 	25999.00404	36.26562	 
1120.0	1.0	0.0	7.33531	7.33498	-5.86438	18.94065	28.32392	1.20507	0.82983	115.66347	126.32261	42.92109	0.3474	 	584248.7106	 	1.16382E-5	 	25818.07046	36.18672	 
1115.0	1.0	0.0	7.33793	7.33236	-5.89796	18.91166	28.24922	1.20392	0.83062	116.133	126.69377	43.10078	0.34723	 	634252.4487	 	1.06822E-5	 	25637.52798	36.10849	 
1110.0	1.0	0.0	7.34054	7.32975	-5.93144	18.88274	28.17447	1.20276	0.83142	116.60156	127.06325	43.28015	0.34706	 	688935.3331	 	9.7989E-6	 	25457.37329	36.03094	 
1105.0	1.0	0.0	7.34314	7.32715	-5.96482	18.85389	28.0997	1.2016	0.83222	117.06917	127.43107	43.45921	0.34689	 	748772.0184	 	8.98325E-6	 	25277.60307	35.95404	 
1100.0	1.0	0.0	7.34575	7.32456	-5.99811	18.8251	28.02489	1.20044	0.83303	117.53583	127.79725	43.63795	0.34672	 	814289.0091	 	8.2305E-6	 	25098.2141	35.87779	 
1095.0	1.0	0.0	7.34834	7.32197	-6.03131	18.79637	27.95005	1.19927	0.83384	118.00156	128.16179	43.81638	0.34655	 	886070.6618	 	7.53619E-6	 	24919.20319	35.80218	 
1090.0	1.0	0.0	7.35093	7.31939	-6.06441	18.76771	27.87518	1.1981	0.83466	118.46635	128.52471	43.99451	0.34638	 	964766.0534	 	6.89618E-6	 	24740.5672	35.7272	 
1085.0	1.0	0.0	7.35351	7.31682	-6.09742	18.7391	27.80027	1.19692	0.83548	118.93022	128.88602	44.17232	0.34621	 	1051096.606	 	6.30655E-6	 	24562.30306	35.65283	 
1080.0	1.0	0.0	7.35609	7.31426	-6.13034	18.71056	27.72534	1.19574	0.83631	119.39317	129.24572	44.34983	0.34604	 	1145864.699	 	5.76367E-6	 	24384.40773	35.57907	 
1075.0	1.0	0.0	7.35867	7.3117	-6.16317	18.68207	27.65038	1.19455	0.83714	119.8552	129.60384	44.52704	0.34587	 	1249963.423	 	5.26414E-6	 	24206.87823	35.5059	 
1070.0	1.0	0.0	7.36123	7.30915	-6.1959	18.65363	27.57538	1.19335	0.83797	120.31633	129.96037	44.70395	0.3457	 	1364387.542	 	4.80478E-6	 	24029.71165	35.43332	 
1065.0	1.0	0.0	7.3638	7.3066	-6.22854	18.62525	27.50036	1.19215	0.83882	120.77655	130.31534	44.88056	0.34553	 	1490245.874	 	4.38262E-6	 	23852.90509	35.36131	 
1060.0	1.0	0.0	7.36635	7.30407	-6.2611	18.59693	27.42531	1.19095	0.83967	121.23588	130.66875	45.05688	0.34536	 	1628775.244	 	3.99489E-6	 	23676.45573	35.28987	 
1055.0	1.0	0.0	7.36891	7.30154	-6.29356	18.56866	27.35024	1.18974	0.84052	121.69432	131.02061	45.2329	0.3452	 	1781356.262	 	3.63901E-6	 	23500.36079	35.21899	 
1050.0	1.0	0.0	7.37145	7.29901	-6.32593	18.54044	27.27513	1.18852	0.84138	122.15188	131.37094	45.40863	0.34503	 	1949531.275	 	3.31257E-6	 	23324.61755	35.14865	 
1045.0	1.0	0.0	7.37399	7.2965	-6.35822	18.51227	27.2	1.1873	0.84224	122.60855	131.71974	45.58407	0.34486	 	2135024.504	 	3.01334E-6	 	23149.22331	35.07885	 
1040.0	1.0	0.0	7.37653	7.29399	-6.39042	18.48414	27.12485	1.18608	0.84312	123.06436	132.06702	45.75922	0.34469	 	2339765.072	 	2.73923E-6	 	22974.17547	35.00957	 
1035.0	1.0	0.0	7.37906	7.29149	-6.42253	18.45607	27.04966	1.18485	0.84399	123.5193	132.4128	45.93409	0.34453	 	2565913.015	 	2.4883E-6	 	22799.47141	34.94081	 
1030.0	1.0	0.0	7.38159	7.28899	-6.45455	18.42804	26.97445	1.18361	0.84487	123.97337	132.75708	46.10867	0.34436	 	2815888.652	 	2.25874E-6	 	22625.10861	34.87256	 
1025.0	1.0	0.0	7.38411	7.2865	-6.48649	18.40006	26.89922	1.18236	0.84576	124.42659	133.09987	46.28298	0.34419	 	3092406.297	 	2.04887E-6	 	22451.08457	34.80481	 
1020.0	1.0	0.0	7.38662	7.28402	-6.51834	18.37212	26.82396	1.18111	0.84666	124.87896	133.44119	46.457	0.34403	 	3398512.264	 	1.85715E-6	 	22277.39684	34.73755	 
1015.0	1.0	0.0	7.38913	7.28155	-6.5501	18.34423	26.74868	1.17986	0.84756	125.33048	133.78104	46.63074	0.34386	 	3737628.222	 	1.68212E-6	 	22104.04303	34.67076	 
1010.0	1.0	0.0	7.39164	7.27908	-6.58178	18.31638	26.67337	1.1786	0.84847	125.78116	134.11943	46.8042	0.3437	 	4113600.843	 	1.52245E-6	 	21931.02078	34.60445	 
1005.0	1.0	0.0	7.39414	7.27662	-6.61337	18.28857	26.59805	1.17733	0.84938	126.231	134.45637	46.97739	0.34353	 	4530757.69	 	1.37689E-6	 	21758.32778	34.5386	 
1000.0	1.0	0.0	7.39664	7.27416	-6.64488	18.2608	26.52269	1.17606	0.8503	126.68001	134.79188	47.15031	0.34336	 	4993971.965	 	1.24429E-6	 	21585.96175	34.47321	 
995.0	1.0	0.0	7.39913	7.27171	-6.67631	18.23308	26.44732	1.17478	0.85123	127.12819	135.12595	47.32295	0.3432	 	5508735.238	 	1.12358E-6	 	21413.92048	34.40826	 
990.0	1.0	0.0	7.40161	7.26927	-6.70765	18.20539	26.37192	1.17349	0.85216	127.57555	135.4586	47.49533	0.34303	 	6081242.155	 	1.01379E-6	 	21242.20176	34.34374	 
985.0	1.0	0.0	7.40409	7.26684	-6.7389	18.17775	26.29649	1.1722	0.8531	128.02209	135.78984	47.66743	0.34287	 	6718485.274	 	9.14003E-7	 	21070.80347	34.27966	 
980.0	1.0	0.0	7.40657	7.26441	-6.77008	18.15014	26.22105	1.1709	0.85405	128.46781	136.11968	47.83927	0.3427	 	7428366.019	 	8.23373E-7	 	20899.7235	34.21599	 
975.0	1.0	0.0	7.40904	7.26198	-6.80117	18.12257	26.14558	1.16959	0.855	128.91272	136.44811	48.01084	0.34254	 	8219819.526	 	7.41125E-7	 	20728.95978	34.15274	 
970.0	1.0	0.0	7.41151	7.25957	-6.83218	18.09503	26.0701	1.16828	0.85596	129.35683	136.77516	48.18215	0.34237	 	9102960.233	 	6.66542E-7	 	20558.51029	34.0899	 
965.0	1.0	0.0	7.41397	7.25716	-6.8631	18.06754	25.99458	1.16696	0.85693	129.80013	137.10084	48.3532	0.34221	 	1.008924625E7	 	5.98965E-7	 	20388.37304	34.02745	 
960.0	1.0	0.0	7.41642	7.25476	-6.89395	18.04008	25.91905	1.16564	0.8579	130.24264	137.42514	48.52398	0.34204	 	1.119167113E7	 	5.37784E-7	 	20218.54609	33.96539	 
955.0	1.0	0.0	7.41887	7.25236	-6.92471	18.01265	25.8435	1.1643	0.85888	130.68435	137.74807	48.6945	0.34188	 	1.242498263E7	 	4.82439E-7	 	20049.02751	33.90372	 
950.0	1.0	0.0	7.42132	7.24997	-6.95539	17.98526	25.76792	1.16296	0.85987	131.12527	138.06966	48.86476	0.34172	 	1.380593582E7	 	4.32415E-7	 	19879.81544	33.84241	 
945.0	1.0	0.0	7.42376	7.24758	-6.98599	17.9579	25.69233	1.16162	0.86087	131.5654	138.38989	49.03476	0.34155	 	1.535358268E7	 	3.87238E-7	 	19710.90801	33.78148	 
940.0	1.0	0.0	7.4262	7.24521	-7.01651	17.93058	25.61671	1.16027	0.86187	132.00474	138.70878	49.20451	0.34139	 	1.708960963E7	 	3.46473E-7	 	19542.30344	33.72091	 
935.0	1.0	0.0	7.42863	7.24283	-7.04695	17.90329	25.54107	1.15891	0.86288	132.44331	139.02635	49.374	0.34123	 	1.903872608E7	 	3.0972E-7	 	19373.99994	33.6607	 
930.0	1.0	0.0	7.43106	7.24047	-7.0773	17.87603	25.46541	1.15754	0.8639	132.88109	139.34258	49.54324	0.34106	 	2.122911111E7	 	2.76614E-7	 	19205.99576	33.60084	 
925.0	1.0	0.0	7.43348	7.23811	-7.10758	17.84881	25.38972	1.15616	0.86493	133.31811	139.6575	49.71222	0.3409	 	2.369293412E7	 	2.46819E-7	 	19038.2892	33.54131	 
920.0	1.0	0.0	7.4359	7.23576	-7.13778	17.82162	25.31402	1.15478	0.86596	133.75434	139.97111	49.88095	0.34074	 	2.646695764E7	 	2.20028E-7	 	18870.87855	33.48213	 
915.0	1.0	0.0	7.43831	7.23341	-7.1679	17.79446	25.2383	1.15339	0.86701	134.18981	140.28341	50.04943	0.34057	 	2.959323428E7	 	1.95959E-7	 	18703.76218	33.42327	 
910.0	1.0	0.0	7.44072	7.23107	-7.19793	17.76733	25.16255	1.152	0.86806	134.62452	140.59442	50.21765	0.34041	 	3.311991871E7	 	1.74356E-7	 	18536.93845	33.36475	 
905.0	1.0	0.0	7.44312	7.22874	-7.22789	17.74023	25.08678	1.15059	0.86912	135.05846	140.90414	50.38563	0.34025	 	3.710221041E7	 	1.54984E-7	 	18370.40575	33.30654	 
900.0	1.0	0.0	7.44552	7.22641	-7.25777	17.71317	25.01099	1.14918	0.87018	135.49163	141.21258	50.55335	0.34009	 	4.160344881E7	 	1.37629E-7	 	18204.16252	33.24865	 
895.0	1.0	0.0	7.44791	7.22409	-7.28757	17.68613	24.93518	1.14776	0.87126	135.92405	141.51974	50.72083	0.33992	 	4.669639641E7	 	1.22096E-7	 	18038.20719	33.19107	 
890.0	1.0	0.0	7.4503	7.22177	-7.31729	17.65913	24.85935	1.14634	0.87234	136.35572	141.82563	50.88806	0.33976	 	5.24647286E7	 	1.08207E-7	 	17872.53824	33.13379	 
885.0	1.0	0.0	7.45268	7.21946	-7.34693	17.63216	24.7835	1.1449	0.87344	136.78663	142.13026	51.05505	0.3396	 	5.900477091E7	 	9.57998E-8	 	17707.15416	33.07682	 
880.0	1.0	0.0	7.45506	7.21716	-7.3765	17.60521	24.70762	1.14346	0.87454	137.21679	142.43363	51.22179	0.33944	 	6.642754712E7	 	8.47275E-8	 	17542.05346	33.02014	 
875.0	1.0	0.0	7.45744	7.21486	-7.40598	17.5783	24.63172	1.14201	0.87565	137.6462	142.73575	51.38828	0.33928	 	7.486114832E7	 	7.48564E-8	 	17377.23469	32.96375	 
870.56	1.0	0.0	7.45954	7.21282	-7.43211	17.55441	24.56426	1.14072	0.87664	138.02713	143.00316	51.53601	0.33913	 	8.332211169E7	 	6.69948E-8	 	17231.01807	 	 
870.0	1.0	0.0	7.45997	7.21241	-7.43741	17.54241	24.54493	1.14106	0.87638	138.04919	142.97312	51.54654	0.33907	 	8.468397543E7	 	6.58853E-8	 	17204.46954	34.55303	 
865.0	1.0	0.0	7.46378	7.20873	-7.48464	17.43535	24.37029	1.14421	0.87397	138.23843	142.7023	51.6375	0.33855	 	9.801148309E7	 	5.66773E-8	 	16967.28537	47.43683	 
860.0	1.0	0.0	7.46755	7.20509	-7.53134	17.32937	24.20195	1.1471	0.87176	138.41237	142.42951	51.72229	0.33803	 	1.13574416E8	 	4.8696E-8	 	16731.9817	47.06073	 
