T (C)	Fraction solid (wt)-TOTAL	Fraction liquid (wt)-LIQUID	Density (g/(cm)^3)-TOTAL	Molar volume (cm^3)-TOTAL	Volume change (%)-  	Average expansion coeff. (10e-6 1/K)-  	Thermal conductivity (W/(m*K))-TOTAL	Electrical resistivity (10e-6 Ohm*m)-TOTAL	Electrical conductivity (10e6 1/(Ohm*m))-TOTAL	Young's modulus (GPa)-TOTAL	Bulk modulus (GPa)-TOTAL	Shear modulus(GPa)-TOTAL	Poisson's ratio-TOTAL	Liquid viscosity (mPa s)-  	Total viscosity (mPa s)-  	Liquid diffusivity (10e-9 (m^2)/s)-  	Total diffusivity (10e-9 (m^2)/s)-  	Surface Tension (mN/m)-  	Enthalpy (J/mole)-TOTAL	Specific heat (J/(mole K))-TOTAL	Latent heat (J/mole)-TOTAL
1400.0	0.0	1.0	7.32884	7.79629	0.0	30.51897	29.86078	1.37278	0.72845	0.0	124.31938	0.0	0.5	7.08892	7.08892	1.15197	1.15197	1766.78338	51250.93	 	0.0
1395.0	0.0	1.0	7.3329	7.79198	-0.055392	30.47862	29.7895	1.37195	0.72889	0.0	124.47272	0.0	0.5	7.16502	7.16502	1.13633	1.13633	1769.42254	51045.193	41.1474	0.0
1390.0	0.0	1.0	7.33695	7.78767	-0.11063	30.43839	29.71821	1.37112	0.72933	0.0	124.62607	0.0	0.5	7.2424	7.2424	1.12082	1.12082	1772.07999	50839.937	41.0512	0.0
1385.0	0.0	1.0	7.341	7.78338	-0.16571	30.39831	29.64692	1.37028	0.72978	0.0	124.77941	0.0	0.5	7.32109	7.32109	1.10544	1.10544	1774.75554	50635.158	40.9558	0.0
1380.0	0.0	1.0	7.34504	7.77909	-0.22063	30.35836	29.57563	1.36944	0.73022	0.0	124.93275	0.0	0.5	7.40112	7.40112	1.09019	1.09019	1777.44892	50430.855	40.8606	0.0
1375.0	0.0	1.0	7.34907	7.77482	-0.27539	30.31855	29.50433	1.3686	0.73067	0.0	125.0861	0.0	0.5	7.48252	7.48252	1.07507	1.07507	1780.15988	50227.024	40.7662	0.0
1370.0	0.0	1.0	7.3531	7.77057	-0.33	30.27889	29.43304	1.36775	0.73113	0.0	125.23944	0.0	0.5	7.56532	7.56532	1.06007	1.06007	1782.88812	50023.664	40.672	0.0
1365.0	0.0	1.0	7.35712	7.76632	-0.38445	30.23936	29.36174	1.3669	0.73158	0.0	125.39278	0.0	0.5	7.64955	7.64955	1.04521	1.04521	1785.63337	49820.77	40.5788	0.0
1360.0	0.0	1.0	7.36113	7.76209	-0.43875	30.19998	29.29044	1.36605	0.73204	0.0	125.54613	0.0	0.5	7.73524	7.73524	1.03048	1.03048	1788.39532	49618.342	40.4856	0.0
1355.0	0.0	1.0	7.36514	7.75787	-0.49289	30.16075	29.21914	1.36519	0.7325	0.0	125.69947	0.0	0.5	7.82242	7.82242	1.01587	1.01587	1791.17366	49416.377	40.393	0.0
1350.0	0.0	1.0	7.36913	7.75366	-0.54687	30.12166	29.14784	1.36433	0.73296	0.0	125.85281	0.0	0.5	7.91114	7.91114	1.0014	1.0014	1793.96806	49214.871	40.3012	0.0
1346.32	0.0	1.0	7.37207	7.75057	-0.58646	30.09302	29.09542	1.36369	0.7333	0.0	125.96556	0.0	0.5	7.97736	7.97736	0.99084	0.99084	1796.03262	49067.021	40.21936	0.0
1345.0	0.0409801	0.95902	7.38299	7.73918	-0.73253	29.70789	29.20728	1.35736	0.73673	2.58355E-4	126.0733	8.6439E-5	0.49444	7.9885	8.53532	0.98864	0.92531	1795.31981	48390.619	510.91237	623.202
1340.0	0.18149	0.81851	7.42104	7.69944	-1.24231	28.36597	29.59122	1.3356	0.74872	0.10192	126.41648	0.0345471	0.47514	8.03025	53.64273	0.98047	0.14677	1792.68914	46063.791	465.3656	2749.438
1335.0	0.29526	0.70474	7.45274	7.66673	-1.66184	27.27233	29.89805	1.3178	0.75884	0.72909	126.72348	0.24981	0.4593	8.07217	335.88969	0.97235	0.0233677	1790.17273	44154.0	381.9582	4459.089
1330.0	0.38853	0.61147	7.47949	7.63934	-2.0132	26.36638	30.14426	1.30297	0.76748	2.22582	127.00761	0.76957	0.44614	8.11427	1047.61396	0.9643	0.00746895	1787.77154	42564.1	317.98	5849.3
1325.0	0.46587	0.53413	7.50235	7.61611	-2.31112	25.6077	30.34204	1.29044	0.77493	4.67341	127.28049	1.62824	0.43511	8.15654	2291.12088	0.95631	0.00340452	1785.48407	41222.78	268.264	6991.379
1320.24	0.52761	0.47239	7.5212	7.59709	-2.55511	24.99479	30.49268	1.28025	0.7811	7.79124	127.53525	2.73146	0.4262	8.19706	3993.33469	0.94875	0.00194749	1783.41238	40130.636	 	7894.418
1320.0	0.53424	0.46576	7.52315	7.59513	-2.5803	24.92649	30.51137	1.27927	0.7817	8.20136	127.57657	2.87721	0.42523	8.20128	4211.54226	0.94812	0.0018463	1783.25304	40019.039	240.7482	7996.324
1315.0	0.65621	0.34379	7.55956	7.55877	-3.04663	23.66643	30.86073	1.26082	0.79314	19.20768	128.21171	6.82532	0.40709	8.28827	10290.28788	0.93522	7.5327E-4	1780.1278	37964.351	410.9376	9852.66
1310.0	0.73809	0.26191	7.58511	7.53352	-3.37053	22.81253	31.08079	1.24795	0.80132	31.41232	128.65349	11.26128	0.3947	8.37454	17663.97987	0.92267	4.37442E-4	1777.21169	36543.317	284.2068	11075.782
1305.0	0.79528	0.20472	7.60393	7.51509	-3.60695	22.20846	31.21601	1.23862	0.80735	43.03475	129.00579	15.5257	0.38592	8.46012	25514.67503	0.91045	3.01887E-4	1774.49597	35506.889	207.2856	11914.738
1300.0	0.83663	0.16337	7.6184	7.50102	-3.78732	21.76462	31.29444	1.2316	0.81195	53.38185	129.31779	19.34858	0.37948	8.54519	33470.36673	0.89854	2.29402E-4	1771.96755	34713.705	158.6368	12510.885
1295.0	0.86742	0.13258	7.62997	7.48986	-3.93047	21.42728	31.33382	1.22614	0.81557	62.32951	129.61275	22.67177	0.37461	8.63012	41415.59653	0.88686	1.84804E-4	1769.6104	34080.299	126.6812	12947.69
1290.0	0.89097	0.10903	7.63952	7.48069	-4.04808	21.16306	31.34577	1.22177	0.81849	69.9865	129.90208	25.52716	0.37082	8.71516	49356.62511	0.87541	1.54576E-4	1767.40959	33555.506	104.9586	13276.313
1285.0	0.90938	0.0906177	7.64763	7.47294	-4.14758	20.95066	31.33799	1.21816	0.82091	76.53589	130.19127	27.97739	0.36782	8.80063	57354.52722	0.86414	1.32595E-4	1765.34936	33106.854	89.7304	13529.225
1280.0	0.92407	0.0759318	7.6547	7.46622	-4.23369	20.77663	31.31565	1.21512	0.82297	82.15408	130.48288	30.08474	0.36538	8.88691	65480.75848	0.853	1.15767E-4	1763.41383	32713.065	78.7578	13727.701
1275.0	0.93597	0.0640276	7.66099	7.46028	-4.3099	20.63092	31.28238	1.21249	0.82475	87.00754	130.77761	31.9092	0.36336	8.97427	73819.7181	0.84198	1.02359E-4	1761.59125	32359.788	70.6554	13886.09
1270.0	0.94577	0.0542297	7.66665	7.45491	-4.37878	20.50615	31.24062	1.21019	0.82631	91.2315	131.07701	33.49997	0.36167	9.06294	82450.06985	0.83105	9.1349E-5	1764.22334	32036.28208	64.70118	14014.33
1265.0	0.95394	0.0460601	7.67081	7.45046	-4.43595	20.41582	31.19196	1.20815	0.82771	94.89968	131.32055	34.88428	0.36021	9.15321	91541.57442	0.82019	8.201E-5	1766.87315	31734.40954	60.37451	14119.463
1260.0	0.96083	0.0391721	7.67488	7.44625	-4.48989	20.33455	31.13837	1.2063	0.82898	98.14546	131.58357	36.11081	0.35895	9.24526	101088.0099	0.80938	7.40239E-5	1769.54378	31451.01385	56.67914	14206.592
1255.0	0.9667	0.033305	7.67888	7.44225	-4.5412	20.26066	31.08079	1.20459	0.83016	101.03916	131.8629	37.20554	0.35785	9.33934	111165.0904	0.79861	6.70941E-5	1772.23274	31182.32521	53.73773	14279.484
1250.0	0.97229	0.02771	7.68301	7.43825	-4.59253	20.18609	31.02212	1.20292	0.83131	103.89392	132.16034	38.28658	0.35679	9.43263	122142.5945	0.78813	6.08642E-5	1774.90257	30917.41903	52.98124	14349.061
1245.0	0.97956	0.0204412	7.68801	7.43359	-4.65222	20.0852	30.97013	1.20099	0.83265	107.62572	132.48905	39.70096	0.35545	9.51318	135219.3852	0.77889	5.47977E-5	1777.41988	30628.57553	57.7687	14443.04
1240.0	0.98538	0.014617	7.69283	7.42921	-4.70848	19.99409	30.91256	1.19926	0.83385	110.78461	132.8282	40.89963	0.35435	9.59334	148810.8741	0.76984	4.96288E-5	1779.95208	30360.51821	53.61146	14516.695
1235.0	0.99012	0.00988156	7.69751	7.42502	-4.76214	19.91028	30.85075	1.19769	0.83494	113.49608	133.17561	41.92955	0.35341	9.67327	163062.859	0.76095	4.51415E-5	1782.50003	30108.10551	50.48254	14575.167
1230.0	0.99402	0.00598149	7.70208	7.421	-4.81373	19.8322	30.78558	1.19625	0.83595	115.85292	133.52953	42.82554	0.35261	9.75347	178110.9688	0.75219	4.11906E-5	1785.06057	29867.69459	48.08218	14622.095
1225.0	0.99727	0.00273218	7.70656	7.41711	-4.86369	19.75859	30.71786	1.1949	0.83689	117.92641	133.88835	43.6144	0.35192	9.834	194088.1756	0.74355	3.76741E-5	1787.63491	29636.65805	46.20731	14660.106
1220.0	1.0	0.0	7.71096	7.41332	-4.91232	19.68855	30.64823	1.19361	0.83779	119.77118	134.25086	44.31672	0.35131	 	211127.1835	 	3.4518E-5	 	29413.06005	44.7196	14691.13
1215.0	1.0	0.0	7.71358	7.4108	-4.94459	19.66948	30.5678	1.19275	0.8384	120.19742	134.57817	44.4799	0.35114	 	227191.6424	 	3.19699E-5	 	29210.79884	40.45224	 
1210.0	1.0	0.0	7.7162	7.40829	-4.97681	19.65045	30.48737	1.19188	0.83901	120.62286	134.90395	44.64283	0.35098	 	244596.8918	 	2.95952E-5	 	29025.08253	37.14326	 
1205.0	1.0	0.0	7.71881	7.40578	-5.00896	19.63145	30.40694	1.191	0.83963	121.04749	135.22821	44.80549	0.35081	 	263464.4788	 	2.73831E-5	 	28839.71333	37.07384	 
1200.0	1.0	0.0	7.72142	7.40328	-5.04105	19.6125	30.3265	1.19012	0.84025	121.47132	135.55097	44.96789	0.35064	 	283927.8581	 	2.53236E-5	 	28654.68995	37.00468	 
1195.0	1.0	0.0	7.72402	7.40078	-5.07308	19.59358	30.24605	1.18924	0.84088	121.89434	135.87222	45.13003	0.35048	 	306133.5782	 	2.3407E-5	 	28470.01144	36.9357	 
1190.0	1.0	0.0	7.72662	7.39829	-5.10504	19.5747	30.1656	1.18835	0.84151	122.31657	136.19196	45.29191	0.35031	 	330242.7346	 	2.16243E-5	 	28285.67647	36.867	 
1185.0	1.0	0.0	7.72922	7.3958	-5.13694	19.55587	30.08514	1.18745	0.84214	122.73799	136.51022	45.45353	0.35015	 	356432.4188	 	1.99669E-5	 	28101.68409	36.79847	 
1180.0	1.0	0.0	7.73182	7.39332	-5.16878	19.53707	30.00467	1.18655	0.84278	123.1586	136.82698	45.61489	0.34998	 	384897.5318	 	1.84269E-5	 	27918.03297	36.73022	 
1175.0	1.0	0.0	7.73441	7.39084	-5.20056	19.51832	29.9242	1.18565	0.84342	123.57841	137.14226	45.77598	0.34982	 	415852.5682	 	1.69966E-5	 	27734.72217	36.66216	 
1170.0	1.0	0.0	7.737	7.38837	-5.23227	19.49961	29.84372	1.18474	0.84406	123.99742	137.45606	45.93681	0.34965	 	449533.9026	 	1.56688E-5	 	27551.75035	36.59436	 
1165.0	1.0	0.0	7.73958	7.3859	-5.26392	19.48094	29.76323	1.18383	0.84471	124.41563	137.76838	46.09738	0.34949	 	486201.9558	 	1.44369E-5	 	27369.11658	36.52675	 
1160.0	1.0	0.0	7.74216	7.38344	-5.2955	19.46231	29.68274	1.18292	0.84537	124.83304	138.07923	46.25769	0.34932	 	526144.0524	 	1.32946E-5	 	27186.81953	36.45941	 
1155.0	1.0	0.0	7.74474	7.38098	-5.32703	19.44373	29.60224	1.18199	0.84603	125.24964	138.38863	46.41774	0.34916	 	569677.1894	 	1.22358E-5	 	27004.85824	36.39226	 
1150.0	1.0	0.0	7.74731	7.37853	-5.35849	19.4252	29.52174	1.18107	0.84669	125.66544	138.69656	46.57752	0.34899	 	617151.4564	 	1.1255E-5	 	26823.2314	36.32537	 
1145.0	1.0	0.0	7.74989	7.37608	-5.38989	19.40671	29.44123	1.18014	0.84736	126.08044	139.00304	46.73704	0.34883	 	668953.6349	 	1.0347E-5	 	26641.9381	36.25866	 
1140.0	1.0	0.0	7.75245	7.37364	-5.42122	19.38826	29.36071	1.1792	0.84803	126.49464	139.30808	46.8963	0.34866	 	725511.4256	 	9.50672E-6	 	26460.97697	36.19223	 
1135.0	1.0	0.0	7.75502	7.3712	-5.45249	19.36987	29.28018	1.17826	0.84871	126.90804	139.61167	47.0553	0.3485	 	787297.9033	 	8.72964E-6	 	26280.34711	36.12597	 
1130.0	1.0	0.0	7.75758	7.36877	-5.4837	19.35152	29.19965	1.17731	0.84939	127.32063	139.91382	47.21404	0.34833	 	854836.9105	 	8.01138E-6	 	26100.04718	36.05998	 
1125.0	1.0	0.0	7.76014	7.36634	-5.51485	19.33322	29.11912	1.17636	0.85008	127.73243	140.21455	47.37252	0.34817	 	928708.5976	 	7.34786E-6	 	25920.07629	35.99418	 
1120.0	1.0	0.0	7.76269	7.36392	-5.54593	19.31497	29.03857	1.17541	0.85077	128.14343	140.51385	47.53073	0.34801	 	1009556.24	 	6.73526E-6	 	25740.43309	35.92864	 
1115.0	1.0	0.0	7.76524	7.3615	-5.57695	19.29677	28.95802	1.17445	0.85146	128.55363	140.81172	47.68868	0.34784	 	1098093.128	 	6.16998E-6	 	25561.11669	35.86328	 
1110.0	1.0	0.0	7.76779	7.35909	-5.6079	19.27862	28.87747	1.17348	0.85217	128.96303	141.10819	47.84637	0.34768	 	1195111.286	 	5.64869E-6	 	25382.12575	35.79819	 
1105.0	1.0	0.0	7.77033	7.35668	-5.6388	19.26052	28.7969	1.17251	0.85287	129.37164	141.40324	48.0038	0.34751	 	1301490.122	 	5.16824E-6	 	25203.45939	35.73327	 
1104.27	1.0	0.0	7.7707	7.35633	-5.6433	19.25787	28.78516	1.17237	0.85297	129.43109	141.44609	48.02671	0.34749	 	1317824.608	 	5.10148E-6	 	25177.45914	 	 
1100.0	1.0	0.0	7.77351	7.35367	-5.67737	19.21542	28.73119	1.17093	0.85402	129.81967	141.71367	48.17694	0.34732	 	1418332.38	 	4.72527E-6	 	25011.54738	38.3824	 
1095.0	1.0	0.0	7.77681	7.35055	-5.71742	19.16475	28.66848	1.16922	0.85527	130.27364	142.02464	48.35253	0.34712	 	1546624.939	 	4.31753E-6	 	24817.34521	38.84043	 
1094.77	1.0	0.0	7.77696	7.35041	-5.71925	19.16242	28.66565	1.16914	0.85533	130.29425	142.03872	48.36051	0.34711	 	1552746.738	 	4.29979E-6	 	24808.51846	 	 
1090.0	1.0	0.0	7.77941	7.34809	-5.7489	19.1438	28.58954	1.16816	0.85605	130.68595	142.31873	48.51158	0.34696	 	1687630.466	 	3.94233E-6	 	24637.60439	35.94816	 
1085.0	1.0	0.0	7.78196	7.34568	-5.77988	19.12442	28.50977	1.16713	0.8568	131.09536	142.61063	48.66953	0.34679	 	1842650.493	 	3.59742E-6	 	24458.9218	35.73652	 
1080.0	1.0	0.0	7.78452	7.34327	-5.81077	19.10515	28.42995	1.1661	0.85756	131.50383	142.90106	48.82715	0.34663	 	2013186.971	 	3.28056E-6	 	24280.61386	35.66159	 
1075.0	1.0	0.0	7.78706	7.34087	-5.84159	19.086	28.35009	1.16506	0.85832	131.91136	143.19001	48.98446	0.34646	 	2200918.939	 	2.98965E-6	 	24102.67725	35.58732	 
1070.0	1.0	0.0	7.78961	7.33847	-5.87232	19.06696	28.27019	1.16402	0.85909	132.31795	143.47751	49.14146	0.3463	 	2407720.582	 	2.72273E-6	 	23925.10881	35.51369	 
1065.0	1.0	0.0	7.79214	7.33608	-5.90296	19.04803	28.19025	1.16298	0.85986	132.7236	143.76356	49.29814	0.34613	 	2635685.476	 	2.47798E-6	 	23747.90556	35.44065	 
1060.0	1.0	0.0	7.79467	7.3337	-5.93353	19.02922	28.11028	1.16193	0.86064	133.12833	144.04816	49.4545	0.34597	 	2887154.009	 	2.2537E-6	 	23571.06456	35.3682	 
1055.0	1.0	0.0	7.7972	7.33132	-5.96401	19.01052	28.03026	1.16088	0.86142	133.53214	144.33133	49.61056	0.3458	 	3164744.293	 	2.04831E-6	 	23394.58299	35.29631	 
1050.0	1.0	0.0	7.79972	7.32895	-5.99442	18.99193	27.95021	1.15982	0.8622	133.93503	144.61306	49.7663	0.34564	 	3471387.517	 	1.86034E-6	 	23218.45811	35.22498	 
1045.0	1.0	0.0	7.80224	7.32659	-6.02474	18.97345	27.87012	1.15876	0.86299	134.33699	144.89336	49.92174	0.34548	 	3810367.898	 	1.68844E-6	 	23042.68725	35.15417	 
1040.0	1.0	0.0	7.80475	7.32423	-6.05499	18.95508	27.79	1.15769	0.86379	134.73805	145.17224	50.07686	0.34531	 	4185367.886	 	1.53133E-6	 	22867.2678	35.08389	 
1035.0	1.0	0.0	7.80726	7.32188	-6.08516	18.93681	27.70984	1.15662	0.86459	135.1382	145.44971	50.23168	0.34515	 	4600520.096	 	1.38783E-6	 	22692.19737	35.01409	 
1030.0	1.0	0.0	7.80976	7.31953	-6.11525	18.91865	27.62965	1.15554	0.8654	135.53743	145.72576	50.3862	0.34499	 	5060465.499	 	1.25687E-6	 	22517.47353	34.94477	 
1025.0	1.0	0.0	7.81226	7.31719	-6.14527	18.90059	27.54942	1.15446	0.86621	135.93576	146.00042	50.54041	0.34482	 	5570420.754	 	1.13743E-6	 	22343.09397	34.87591	 
1020.0	1.0	0.0	7.81475	7.31486	-6.17521	18.88264	27.46916	1.15337	0.86702	136.33319	146.27367	50.69431	0.34466	 	6136253.658	 	1.02857E-6	 	22169.05635	34.80752	 
1015.0	1.0	0.0	7.81724	7.31253	-6.20507	18.86478	27.38888	1.15228	0.86784	136.72972	146.54552	50.84791	0.3445	 	6764570.686	 	9.29422E-7	 	21995.35849	34.73957	 
1010.0	1.0	0.0	7.81972	7.31021	-6.23487	18.84703	27.30856	1.15118	0.86867	137.12536	146.81599	51.00121	0.34433	 	7462815.635	 	8.39192E-7	 	21821.9981	34.67208	 
1005.0	1.0	0.0	7.8222	7.30789	-6.26459	18.82938	27.22821	1.15008	0.8695	137.52009	147.08507	51.15421	0.34417	 	8239382.866	 	7.57136E-7	 	21648.97304	34.60501	 
1000.0	1.0	0.0	7.82468	7.30558	-6.29423	18.81182	27.14783	1.14897	0.87034	137.91394	147.35278	51.30691	0.34401	 	9103746.796	 	6.82568E-7	 	21476.28112	34.53838	 
999.14	1.0	0.0	7.82511	7.30518	-6.29935	18.80879	27.13394	1.14878	0.87049	137.98192	147.39891	51.33327	0.34398	 	9262787.155	 	6.70393E-7	 	21446.46997	 	 
995.0	1.0	0.0	7.82874	7.30179	-6.34282	18.72079	27.01128	1.15025	0.86938	138.5541	147.7101	51.5583	0.34366	 	1.017538009E7	 	6.08284E-7	 	21217.26322	51.80358	 
990.0	1.0	0.0	7.83308	7.29775	-6.39468	18.6161	26.86701	1.15187	0.86816	139.23076	148.07778	51.8245	0.34329	 	1.140633627E7	 	5.405E-7	 	20943.58189	54.73627	 
985.0	1.0	0.0	7.83736	7.29376	-6.4458	18.51321	26.7267	1.15333	0.86706	139.89168	148.4366	52.08459	0.34293	 	1.27947113E7	 	4.79942E-7	 	20673.53199	54.00998	 
980.0	1.0	0.0	7.84158	7.28983	-6.4962	18.41209	26.59	1.15465	0.86606	140.5376	148.78705	52.33886	0.34257	 	1.436175749E7	 	4.25875E-7	 	20407.00649	53.3051	 
975.0	1.0	0.0	7.84575	7.28596	-6.5459	18.31266	26.45671	1.15584	0.86517	141.16925	149.12957	52.58759	0.34223	 	1.613175813E7	 	3.77635E-7	 	20143.9014	52.62102	 
970.0	1.0	0.0	7.84987	7.28214	-6.59491	18.2149	26.32665	1.1569	0.86438	141.78729	149.46458	52.83102	0.34189	 	1.813248491E7	 	3.34621E-7	 	19884.1158	51.95712	 
965.0	1.0	0.0	7.85393	7.27837	-6.64327	18.11874	26.19965	1.15783	0.86369	142.39237	149.79246	53.06942	0.34157	 	2.039572689E7	 	2.96293E-7	 	19627.55156	51.31285	 
960.0	1.0	0.0	7.85795	7.27465	-6.69097	18.02414	26.07557	1.15864	0.86308	142.98508	150.11357	53.303	0.34125	 	2.295790753E7	 	2.62162E-7	 	19374.11302	50.68771	 
955.0	1.0	0.0	7.86192	7.27098	-6.73805	17.93106	25.95424	1.15934	0.86256	143.56601	150.42824	53.532	0.34094	 	2.586079545E7	 	2.31791E-7	 	19123.70714	50.08118	 
950.0	1.0	0.0	7.86583	7.26735	-6.78452	17.83944	25.83554	1.15992	0.86213	144.1357	150.73678	53.75662	0.34063	 	2.915233706E7	 	2.04783E-7	 	18876.24313	49.4928	 
945.0	1.0	0.0	7.86971	7.26378	-6.8304	17.74925	25.71933	1.1604	0.86177	144.69467	151.03949	53.97707	0.34033	 	3.288762253E7	 	1.80782E-7	 	18631.63246	48.92213	 
940.0	1.0	0.0	7.87354	7.26024	-6.8757	17.66043	25.60547	1.16077	0.86149	145.24341	151.33663	54.19353	0.34004	 	3.713001114E7	 	1.59469E-7	 	18389.78889	48.36871	 
935.0	1.0	0.0	7.87732	7.25676	-6.92044	17.57295	25.49386	1.16105	0.86129	145.7824	151.62847	54.40619	0.33976	 	4.195244624E7	 	1.40556E-7	 	18150.62823	47.83213	 
930.0	1.0	0.0	7.88106	7.25331	-6.96464	17.48677	25.38436	1.16123	0.86115	146.31207	151.91525	54.61522	0.33948	 	4.743898586E7	 	1.23786E-7	 	17914.06842	47.31196	 
925.0	1.0	0.0	7.88476	7.24991	-7.0083	17.40183	25.27688	1.16133	0.86109	146.83285	152.19718	54.82079	0.33921	 	5.368659981E7	 	1.08926E-7	 	17680.0295	46.80778	 
920.0	1.0	0.0	7.88842	7.24654	-7.05146	17.31809	25.17129	1.16133	0.86108	147.34516	152.47449	55.02306	0.33894	 	6.080726294E7	 	9.57693E-8	 	17448.43353	46.31919	 
915.0	1.0	0.0	7.89205	7.24322	-7.09411	17.23552	25.06751	1.16125	0.86114	147.84936	152.74738	55.22216	0.33868	 	6.893041419E7	 	8.41293E-8	 	17219.20463	45.84578	 
910.0	1.0	0.0	7.89563	7.23993	-7.13628	17.15408	24.96544	1.16109	0.86126	148.34583	153.01603	55.41826	0.33842	 	7.820583929E7	 	7.38393E-8	 	16992.26895	45.38714	 
905.0	1.0	0.0	7.89918	7.23668	-7.17798	17.07371	24.86499	1.16086	0.86143	148.83491	153.28062	55.61147	0.33817	 	8.880706054E7	 	6.475E-8	 	16767.55461	44.94287	 
900.0	1.0	0.0	7.90269	7.23346	-7.21922	16.99439	24.76607	1.16055	0.86166	149.31692	153.54132	55.80194	0.33792	 	1.009353013E8	 	5.6728E-8	 	16544.99176	44.51257	 
895.0	1.0	0.0	7.90616	7.23028	-7.26001	16.91608	24.6686	1.16017	0.86195	149.79219	153.79828	55.98977	0.33767	 	1.148241861E8	 	4.96537E-8	 	16324.51255	44.09584	 
890.0	1.0	0.0	7.90961	7.22714	-7.30038	16.83872	24.5725	1.15972	0.86228	150.26101	154.05165	56.17509	0.33743	 	1.307452437E8	 	4.34207E-8	 	16106.05107	43.6923	 
885.0	1.0	0.0	7.91302	7.22402	-7.34033	16.76229	24.47771	1.1592	0.86266	150.72365	154.30158	56.35802	0.3372	 	1.490144315E8	 	3.79335E-8	 	15889.5434	43.30153	 
880.0	1.0	0.0	7.91639	7.22094	-7.37987	16.68675	24.38414	1.15863	0.86309	151.18038	154.54819	56.53864	0.33697	 	1.699998059E8	 	3.31073E-8	 	15674.92749	42.92318	 
875.0	1.0	0.0	7.91974	7.21789	-7.41902	16.61206	24.29175	1.15799	0.86356	151.63146	154.7916	56.71706	0.33674	 	1.941306427E8	 	2.88663E-8	 	15462.1428	42.55694	 
870.0	1.0	0.0	7.92306	7.21486	-7.45778	16.53818	24.20046	1.1573	0.86408	152.07713	155.03193	56.89338	0.33651	 	2.219081889E8	 	2.5143E-8	 	15251.13171	42.20222	 
865.0	1.0	0.0	7.92635	7.21187	-7.49618	16.46508	24.11022	1.15655	0.86464	152.5176	155.2693	57.06768	0.33629	 	2.53918424E8	 	2.18772E-8	 	15041.83794	41.85875	 
860.0	1.0	0.0	7.92961	7.20891	-7.53421	16.39272	24.02097	1.15575	0.86524	152.95309	155.50379	57.24005	0.33607	 	2.908472496E8	 	1.90156E-8	 	14834.20693	41.5262	 
