T (C)	Fraction solid (wt)-TOTAL	Fraction liquid (wt)-LIQUID	Density (g/(cm)^3)-TOTAL	Molar volume (cm^3)-TOTAL	Volume change (%)-  	Average expansion coeff. (10e-6 1/K)-  	Thermal conductivity (W/(m*K))-TOTAL	Electrical resistivity (10e-6 Ohm*m)-TOTAL	Electrical conductivity (10e6 1/(Ohm*m))-TOTAL	Young's modulus (GPa)-TOTAL	Bulk modulus (GPa)-TOTAL	Shear modulus(GPa)-TOTAL	Poisson's ratio-TOTAL	Liquid viscosity (mPa s)-  	Total viscosity (mPa s)-  	Liquid diffusivity (10e-9 (m^2)/s)-  	Total diffusivity (10e-9 (m^2)/s)-  	Surface Tension (mN/m)-  	Enthalpy (J/mole)-TOTAL	Specific heat (J/(mole K))-TOTAL	Latent heat (J/mole)-TOTAL
1400.0	0.0	1.0	7.19988	7.74257	0.0	30.22854	29.89548	1.37118	0.7293	0.0	124.22813	0.0	0.5	6.89261	6.89261	1.18478	1.18478	1756.94738	51238.419	 	0.0
1395.0	0.0	1.0	7.20385	7.73829	-0.0551957	30.18782	29.82537	1.3703	0.72977	0.0	124.38199	0.0	0.5	6.96635	6.96635	1.16874	1.16874	1759.16295	51030.575	41.5688	0.0
1390.0	0.0	1.0	7.20782	7.73403	-0.11023	30.14724	29.75526	1.36941	0.73024	0.0	124.53585	0.0	0.5	7.04134	7.04134	1.15282	1.15282	1761.38777	50823.231	41.4688	0.0
1385.0	0.0	1.0	7.21179	7.72978	-0.16511	30.1068	29.68516	1.36852	0.73072	0.0	124.68971	0.0	0.5	7.11759	7.11759	1.13704	1.13704	1763.62162	50616.383	41.3696	0.0
1380.0	0.0	1.0	7.21574	7.72555	-0.21983	30.06649	29.61505	1.36762	0.7312	0.0	124.84357	0.0	0.5	7.19514	7.19514	1.1214	1.1214	1765.86425	50410.028	41.271	0.0
1375.0	0.0	1.0	7.21969	7.72132	-0.27439	30.02633	29.54495	1.36672	0.73168	0.0	124.99743	0.0	0.5	7.27401	7.27401	1.10588	1.10588	1768.11537	50204.163	41.173	0.0
1370.0	0.0	1.0	7.22363	7.71711	-0.3288	29.98632	29.47484	1.36581	0.73216	0.0	125.15129	0.0	0.5	7.35424	7.35424	1.0905	1.0905	1770.37472	49998.787	41.0752	0.0
1365.0	0.0	1.0	7.22756	7.71291	-0.38304	29.94644	29.40474	1.36491	0.73265	0.0	125.30514	0.0	0.5	7.43584	7.43584	1.07525	1.07525	1772.64202	49793.896	40.9782	0.0
1360.0	0.0	1.0	7.23149	7.70872	-0.43713	29.90672	29.33463	1.36399	0.73314	0.0	125.459	0.0	0.5	7.51887	7.51887	1.06013	1.06013	1774.91696	49589.488	40.8816	0.0
1355.0	0.0	1.0	7.23541	7.70455	-0.49105	29.86714	29.26452	1.36307	0.73364	0.0	125.61286	0.0	0.5	7.60333	7.60333	1.04515	1.04515	1777.19926	49385.56	40.7856	0.0
1350.0	0.0	1.0	7.23932	7.70038	-0.54482	29.82771	29.19442	1.36215	0.73413	0.0	125.76672	0.0	0.5	7.68927	7.68927	1.03029	1.03029	1779.48862	49182.109	40.6902	0.0
1345.0	0.0	1.0	7.24322	7.69623	-0.59843	29.78844	29.12431	1.36122	0.73463	0.0	125.92058	0.0	0.5	7.77673	7.77673	1.01557	1.01557	1781.78473	48979.133	40.5952	0.0
1341.26	0.0	1.0	7.24614	7.69314	-0.63838	29.75919	29.07194	1.36053	0.73501	0.0	126.03553	0.0	0.5	7.84308	7.84308	1.00465	1.00465	1783.5044	48827.806	40.50986	0.0
1340.0	0.03358	0.96642	7.25466	7.68416	-0.75441	29.45701	29.15418	1.35563	0.73767	1.08617E-4	125.64869	3.63187E-5	0.49534	7.86132	8.28749	1.00153	0.95003	1783.3137	48274.251	437.78669	502.376
1335.0	0.15433	0.84567	7.28578	7.65134	-1.17831	28.35633	29.44623	1.33802	0.74737	0.0494658	124.28102	0.0167291	0.47844	7.93459	42.02837	0.98921	0.18675	1782.60652	46274.58	399.9342	2300.014
1330.0	0.2539	0.7461	7.31215	7.62375	-1.53463	27.44133	29.67877	1.32341	0.75562	0.36898	123.21633	0.12599	0.46436	8.00954	263.366	0.97691	0.0297099	1781.96968	44600.083	334.8994	3772.945
1325.0	0.33702	0.66298	7.33478	7.6002	-1.83881	26.66967	29.86459	1.31107	0.76273	1.16372	122.39077	0.40059	0.45249	8.08621	846.96278	0.96463	0.00920958	1781.401	43178.357	284.3452	4993.57
1320.0	0.40717	0.59283	7.35444	7.57985	-2.10165	26.01174	30.01315	1.3005	0.76893	2.51456	121.75666	0.87166	0.44239	8.16461	1909.24288	0.95238	0.0040727	1780.8976	41955.863	244.4988	6015.427
1315.0	0.46697	0.53303	7.37171	7.5621	-2.33087	25.4464	30.13115	1.29134	0.77439	4.40567	121.27781	1.53646	0.43371	8.24482	3512.37021	0.94015	0.00220688	1780.45624	40892.378	212.697	6878.733
1310.0	0.51838	0.48162	7.387	7.54643	-2.53319	24.95516	30.22382	1.28333	0.77922	6.76817	120.92531	2.37281	0.42619	8.32682	5682.96063	0.92796	0.00135967	1780.07418	39957.253	187.025	7614.136
1305.0	0.56293	0.43707	7.40069	7.53244	-2.71388	24.52342	30.29518	1.27627	0.78354	9.51314	120.67625	3.35057	0.41963	8.41069	8429.29744	0.91581	9.13784E-4	1779.74896	39126.825	166.0856	8245.298
1300.0	0.60181	0.39819	7.41303	7.5199	-2.87592	24.14314	30.34863	1.26998	0.78741	12.54894	120.5142	4.43782	0.41386	8.49641	11751.24444	0.90369	6.53391E-4	1779.47709	38382.606	148.8438	8790.704
1295.0	0.63595	0.36405	7.42425	7.50852	-3.0229	23.80429	30.38673	1.26436	0.79092	15.79355	120.4243	5.60547	0.40876	8.58404	15650.32452	0.89163	4.89047E-4	1779.25649	37709.996	134.522	9264.951
1290.0	0.66612	0.33388	7.4345	7.49811	-3.15733	23.5	30.41169	1.25929	0.7941	19.17436	120.3949	6.8274	0.40422	8.67356	20127.15251	0.87961	3.79057E-4	1779.08503	37097.346	122.53	9679.688
1287.14	0.68168	0.31832	7.43994	7.49264	-3.22799	23.34338	30.42033	1.25663	0.79578	21.12697	120.40491	7.53527	0.40187	8.72563	22931.27478	0.87276	3.32096E-4	1779.00644	36771.998	 	9891.994
1285.0	0.70105	0.29895	7.44624	7.48625	-3.31044	23.13768	30.4491	1.25372	0.79763	23.76506	120.40177	8.49418	0.3989	8.78644	26416.58963	0.86553	2.87885E-4	1779.30006	36408.203	137.8286	10171.363
1280.0	0.74017	0.25983	7.4593	7.47301	-3.48152	22.71882	30.49828	1.24768	0.80149	29.8807	120.4397	10.72625	0.39288	8.9281	35168.21946	0.84906	2.15551E-4	1779.9482	35653.31	150.9786	10729.23
1275.0	0.77156	0.22844	7.47029	7.46186	-3.62554	22.37775	30.52356	1.24264	0.80474	35.64617	120.54181	12.84083	0.388	9.06976	44497.60482	0.83311	1.6981E-4	1780.55986	35015.47	127.568	11170.487
1270.0	0.79728	0.20272	7.47976	7.45226	-3.74947	22.09444	30.53096	1.23832	0.80754	41.0142	120.69329	14.81754	0.38397	9.21192	54378.41054	0.81761	1.38506E-4	1781.14536	34462.847	110.5246	11526.964
1265.0	0.81872	0.18128	7.48808	7.44381	-3.85857	21.85368	30.52462	1.23457	0.81	45.98641	120.88292	16.65467	0.38059	9.355	64833.53767	0.80249	1.15794E-4	1781.71327	33974.015	97.7664	11820.088
1260.0	0.83686	0.16314	7.49552	7.43626	-3.95616	21.6459	30.50742	1.23125	0.81218	50.58168	121.10288	18.35739	0.37769	9.49944	75906.32308	0.78772	9.8581E-5	1782.26922	33534.079	87.9872	12064.75
1255.0	0.8524	0.1476	7.50225	7.42942	-4.04446	21.46476	30.48167	1.22827	0.81415	54.83358	121.34759	19.93674	0.37519	9.64555	87667.81024	0.77326	8.50771E-5	1782.81633	33132.397	80.3364	12271.589
1250.0	0.86587	0.13413	7.50844	7.42313	-4.12573	21.30365	30.44893	1.22557	0.81595	58.77223	121.61187	21.40289	0.373	9.79356	100188.7945	0.75908	7.42011E-5	1783.35921	32761.184	74.2426	12448.391
1245.0	0.87765	0.12235	7.51416	7.4173	-4.20099	21.15969	30.41045	1.22309	0.8176	62.42955	121.89261	22.76689	0.37106	9.94375	113557.0991	0.74516	6.5251E-5	1783.89889	32414.621	69.3126	12600.969
1240.0	0.88804	0.11196	7.51952	7.41185	-4.27136	21.02965	30.3672	1.2208	0.81914	65.83326	122.18699	24.03845	0.36933	10.09638	127865.2054	0.73148	5.77586E-5	1784.4373	32088.277	65.2688	12733.755
1235.0	0.89727	0.10273	7.52456	7.40672	-4.33766	20.91113	30.31993	1.21866	0.82057	69.01399	122.49275	25.22851	0.36778	10.25168	143224.1472	0.71802	5.13943E-5	1784.97559	31778.728	61.9098	12850.172
1230.0	0.90552	0.0944771	7.52933	7.40185	-4.4006	20.80206	30.26928	1.21665	0.82193	71.99275	122.80791	26.34453	0.36637	10.40975	159741.0636	0.70477	4.59275E-5	1785.51529	31483.283	59.089	12952.908
1225.0	0.91295	0.0870451	7.53388	7.39722	-4.46042	20.70185	30.21571	1.21475	0.82321	74.78856	123.13139	27.3933	0.36509	10.57087	177535.0654	0.69172	4.11868E-5	1786.05559	31199.805	56.6956	13044.098
1220.0	0.91967	0.0803255	7.53824	7.39277	-4.51787	20.60826	30.15963	1.21295	0.82444	77.424	123.46147	28.38306	0.36391	10.73514	196746.2925	0.67886	3.70411E-5	1786.59864	30926.572	54.6466	13125.461
1215.0	0.92578	0.0742198	7.54244	7.38849	-4.57305	20.52098	30.10137	1.21123	0.82561	79.91215	123.79753	29.31848	0.36283	10.90279	217514.5552	0.66619	3.33922E-5	1787.14381	30662.186	52.8772	13198.395
1210.0	0.93135	0.0686487	7.54648	7.38437	-4.62633	20.43901	30.0412	1.20958	0.82673	82.26796	124.1385	30.20501	0.36183	11.07394	239997.6285	0.65369	3.01623E-5	1787.69188	30405.497	51.3378	13264.046
1205.0	0.93646	0.0635445	7.5504	7.38037	-4.67794	20.36165	29.97935	1.20799	0.82782	84.50399	124.48361	31.04724	0.36089	11.2487	264367.1748	0.64136	2.72896E-5	1788.24341	30155.554	49.9886	13323.363
1200.0	0.94115	0.0588528	7.55421	7.3765	-4.72794	20.28877	29.91603	1.20645	0.82888	86.63056	124.83249	31.84891	0.36002	11.4273	290811.1668	0.6292	2.47242E-5	1788.79739	29911.562	48.7984	13377.14
1195.0	0.94547	0.0545277	7.55791	7.37273	-4.77668	20.21932	29.85137	1.20496	0.8299	88.65742	125.18437	32.61362	0.35921	11.6098	319533.4468	0.61721	2.24254E-5	1789.35596	29672.852	47.742	13426.043
1190.0	0.94947	0.0505272	7.5615	7.36905	-4.82425	20.15301	29.78545	1.20351	0.8309	90.59438	125.5399	33.34497	0.35844	11.79645	350759.0104	0.60537	2.03595E-5	1791.90515	29438.08532	46.95334	13470.638
1185.0	0.95318	0.0468188	7.56498	7.36589	-4.86498	20.10825	29.71693	1.20217	0.83183	92.43381	125.88289	34.04	0.35772	11.98721	385035.4183	0.5937	1.84837E-5	1794.46363	29206.08419	46.40023	13511.404
1180.0	0.95723	0.0427719	7.56845	7.36261	-4.90736	20.05772	29.64981	1.20076	0.83281	94.45076	126.23419	34.8027	0.35695	12.1874	423485.377	0.58195	1.67478E-5	1796.99283	28969.3355	47.34974	13557.371
1175.0	0.96137	0.038629	7.57192	7.35924	-4.95091	20.00294	29.58335	1.19931	0.83381	96.54866	126.59197	35.59663	0.35615	12.39523	466178.422	0.57022	1.51617E-5	1799.50488	28731.47341	47.57242	13604.901
1170.0	0.96515	0.0348518	7.57531	7.35588	-4.99424	19.94844	29.51588	1.1979	0.83479	98.5315	126.9534	36.34758	0.35541	12.60733	512600.6909	0.5587	1.3741E-5	1802.02663	28498.88204	46.51827	13647.608
1165.0	0.9686	0.0313971	7.57864	7.35255	-5.0373	19.89431	29.44753	1.19652	0.83575	100.41059	127.31801	37.05974	0.35471	12.82383	563133.3967	0.54736	1.24646E-5	1804.55702	28270.94669	45.58707	13686.101
1160.0	0.97177	0.0282267	7.58192	7.34923	-5.08013	19.84051	29.37841	1.19517	0.8367	102.1954	127.68543	37.73661	0.35406	13.04494	618192.8259	0.53621	1.1315E-5	1807.09503	28047.15063	44.75921	13720.898
1155.0	0.97469	0.0253099	7.58514	7.34593	-5.12282	19.78667	29.3086	1.19384	0.83764	103.89511	128.05508	38.38161	0.35345	13.2707	678239.5705	0.52525	1.02773E-5	1809.64248	27827.05315	44.0195	13752.433
1150.0	0.97738	0.0226192	7.58831	7.34264	-5.16535	19.73286	29.23818	1.19252	0.83856	105.51764	128.42668	38.9977	0.35287	13.5013	743785.1396	0.51447	9.33877E-6	1812.19799	27610.2785	43.35493	13781.081
1145.0	0.97987	0.0201322	7.59143	7.33935	-5.20773	19.67908	29.16722	1.19122	0.83947	107.06926	128.79989	39.5872	0.35232	13.73675	815387.576	0.50388	8.48877E-6	1814.76164	27396.50699	42.7543	13807.159
1140.0	0.98217	0.0178287	7.59452	7.33608	-5.25001	19.62519	29.09576	1.18994	0.84038	108.55632	129.1744	40.15249	0.3518	13.97727	893668.9286	0.49346	7.71789E-6	1817.33355	27185.45788	42.20982	13830.945
1135.0	0.98431	0.0156905	7.59756	7.33282	-5.29215	19.57125	29.02385	1.18867	0.84128	109.98364	129.54997	40.69535	0.3513	14.22296	979312.4829	0.48322	7.01802E-6	1819.9129	26976.88946	41.71368	13852.677
1130.0	0.9863	0.0137029	7.60057	7.32956	-5.33423	19.51707	28.95155	1.1874	0.84217	111.35682	129.92631	41.2179	0.35083	14.47382	1073083.918	0.47316	6.382E-6	1822.50109	26770.59302	41.25929	13872.562
1125.0	0.98815	0.011853	7.60355	7.32631	-5.37617	19.46282	28.87886	1.18615	0.84306	112.67891	130.30329	41.72125	0.35038	14.7301	1175816.894	0.46327	5.80364E-6	1825.09635	26566.38183	40.84224	13890.784
1120.0	0.98987	0.0101279	7.6065	7.32307	-5.41801	19.40845	28.80582	1.18491	0.84395	113.95411	130.68063	42.20699	0.34994	14.99181	1288448.321	0.45356	5.27737E-6	1827.69915	26364.0932	40.45773	13907.503
1115.0	0.99148	0.00851815	7.60941	7.31984	-5.45973	19.35399	28.73246	1.18367	0.84483	115.18575	131.05817	42.67635	0.34953	15.25914	1412014.223	0.44401	4.79826E-6	1830.30912	26163.5834	40.10196	13922.859
1110.0	0.99299	0.0070129	7.6123	7.31662	-5.50136	19.29934	28.65881	1.18243	0.84571	116.37748	131.43578	43.13072	0.34913	15.53219	1547672.786	0.43463	4.36191E-6	1832.9265	25964.72473	39.77173	13936.978
1105.0	0.99439	0.0056058	7.61517	7.31341	-5.54287	19.24457	28.58487	1.18121	0.84659	117.53157	131.8133	43.57093	0.34874	15.81098	1696698.973	0.42543	3.96441E-6	1835.55149	25767.40251	39.46444	13949.972
1100.0	0.99576	0.00423838	7.618	7.31017	-5.58466	19.18836	28.51137	1.17996	0.84749	118.67806	132.19233	44.00842	0.34836	16.08829	1860895.492	0.41658	3.60149E-6	1838.17633	25569.82501	39.5155	13963.629
1095.0	0.99718	0.00282062	7.62081	7.30685	-5.62753	19.12782	28.4389	1.17866	0.84842	119.86566	132.57471	44.46175	0.34796	16.35662	2042644.887	0.40825	3.2691E-6	1840.79632	25370.11555	39.94189	13979.822
1090.0	0.99855	0.00145341	7.62362	7.30352	-5.6705	19.06637	28.36519	1.1774	0.84933	120.98806	132.95837	44.89087	0.34758	16.6335	2243042.835	0.39999	2.96615E-6	1843.41952	25170.44343	39.93442	13996.383
1085.0	1.0	0.0	7.62651	7.30014	-5.7142	19.00173	28.28793	1.17629	0.85013	122.26532	133.35004	45.37799	0.34719	 	2465433.616	 	2.68869E-6	 	24964.49396	41.18989	14019.623
1080.0	1.0	0.0	7.62897	7.29779	-5.74462	18.98369	28.20786	1.17528	0.85086	122.72654	133.71228	45.55461	0.34703	 	2696305.782	 	2.44942E-6	 	24745.32206	43.83438	 
1075.0	1.0	0.0	7.63143	7.29544	-5.77498	18.9657	28.12779	1.17427	0.85159	123.18696	134.07295	45.73097	0.34687	 	2950731.488	 	2.22995E-6	 	24566.9759	35.66923	 
1070.0	1.0	0.0	7.63388	7.29309	-5.80528	18.94775	28.04771	1.17326	0.85233	123.64658	134.43207	45.90708	0.34671	 	3231306.868	 	2.02877E-6	 	24388.95972	35.60324	 
1065.0	1.0	0.0	7.63633	7.29075	-5.83551	18.92986	27.96763	1.17224	0.85307	124.1054	134.78964	46.08292	0.34654	 	3540935.277	 	1.84448E-6	 	24211.27232	35.53748	 
1060.0	1.0	0.0	7.63878	7.28841	-5.86568	18.91201	27.88754	1.17121	0.85382	124.56343	135.14568	46.25852	0.34638	 	3882865.794	 	1.67577E-6	 	24033.91249	35.47197	 
1055.0	1.0	0.0	7.64123	7.28608	-5.8958	18.89422	27.80745	1.17018	0.85457	125.02067	135.50018	46.43385	0.34622	 	4260737.562	 	1.52142E-6	 	23856.87905	35.40669	 
1050.0	1.0	0.0	7.64367	7.28375	-5.92585	18.87647	27.72735	1.16914	0.85533	125.47711	135.85315	46.60893	0.34606	 	4678629.333	 	1.38031E-6	 	23680.1708	35.34165	 
1045.0	1.0	0.0	7.6461	7.28143	-5.95584	18.85878	27.64724	1.1681	0.85609	125.93276	136.2046	46.78376	0.3459	 	5141116.463	 	1.25139E-6	 	23503.78653	35.27685	 
1040.0	1.0	0.0	7.64854	7.27912	-5.98576	18.84114	27.56713	1.16705	0.85686	126.38762	136.55453	46.95833	0.34574	 	5653335.181	 	1.1337E-6	 	23327.72508	35.21229	 
1035.0	1.0	0.0	7.65097	7.2768	-6.01563	18.82356	27.48702	1.16599	0.85764	126.84169	136.90296	47.13265	0.34558	 	6221056.719	 	1.02631E-6	 	23151.98536	35.14794	 
1030.0	1.0	0.0	7.6534	7.2745	-6.04543	18.80602	27.40689	1.16493	0.85842	127.29497	137.24988	47.30671	0.34542	 	6850769.285	 	9.28414E-7	 	22976.56586	35.0839	 
1025.0	1.0	0.0	7.65582	7.27219	-6.07518	18.78855	27.32677	1.16387	0.85921	127.74747	137.5953	47.48052	0.34526	 	7549774.923	 	8.39223E-7	 	22801.46588	35.02	 
1020.0	1.0	0.0	7.65824	7.26989	-6.10486	18.77113	27.24663	1.16279	0.86	128.19918	137.93923	47.65408	0.3451	 	8326298.032	 	7.58025E-7	 	22626.68385	34.95641	 
1015.0	1.0	0.0	7.66066	7.2676	-6.13448	18.75377	27.16649	1.16171	0.8608	128.65011	138.28168	47.82738	0.34494	 	9189607.54	 	6.84158E-7	 	22452.21879	34.89301	 
1010.0	1.0	0.0	7.66307	7.26531	-6.16404	18.73647	27.08635	1.16063	0.8616	129.10026	138.62265	48.00043	0.34478	 	1.01501614E7	 	6.17009E-7	 	22278.06956	34.82985	 
1005.0	1.0	0.0	7.66548	7.26303	-6.19353	18.71923	27.0062	1.15954	0.86241	129.54962	138.96214	48.17323	0.34462	 	1.121976838E7	 	5.56013E-7	 	22104.23489	34.76693	 
1000.37	1.0	0.0	7.66771	7.26092	-6.22078	18.7033	26.93202	1.15852	0.86317	129.96476	139.27498	48.33292	0.34447	 	1.231825797E7	 	5.04597E-7	 	21943.65399	 	 
1000.0	1.0	0.0	7.66789	7.26075	-6.22297	18.70203	26.9261	1.15844	0.86323	129.99851	139.30041	48.3459	0.34446	 	1.241183743E7	 	5.00645E-7	 	21930.61628	34.72372	 
995.0	1.0	0.0	7.67029	7.25848	-6.25231	18.68503	26.84662	1.1573	0.86408	130.45028	139.64023	48.51971	0.3443	 	1.374242663E7	 	4.50395E-7	 	21756.13568	34.89612	 
990.72	1.0	0.0	7.67234	7.25653	-6.27742	18.67044	26.77847	1.15633	0.86481	130.83644	139.92993	48.66832	0.34416	 	1.500489316E7	 	4.11107E-7	 	21606.96701	 	 
990.0	1.0	0.0	7.67292	7.25598	-6.28454	18.65665	26.75824	1.15655	0.86464	130.95259	140.0103	48.71329	0.34412	 	1.525370272E7	 	4.04172E-7	 	21566.76806	37.87352	 
985.0	1.0	0.0	7.67697	7.25216	-6.3339	18.56105	26.62	1.15795	0.86359	131.75396	140.56463	49.02363	0.34378	 	1.711654161E7	 	3.58759E-7	 	21287.99704	55.75421	 
980.0	1.0	0.0	7.68097	7.24838	-6.38269	18.46668	26.48547	1.15921	0.86266	132.53838	141.10692	49.32747	0.34345	 	1.921808682E7	 	3.18258E-7	 	21012.75265	55.04888	 
975.0	1.0	0.0	7.68493	7.24465	-6.43095	18.37342	26.35437	1.16033	0.86183	133.30679	141.6378	49.62518	0.34314	 	2.159060582E7	 	2.82156E-7	 	20740.86415	54.3777	 
970.0	1.0	0.0	7.68885	7.24095	-6.47871	18.28117	26.22658	1.16131	0.8611	134.06013	142.15792	49.91712	0.34283	 	2.427101294E7	 	2.4999E-7	 	20472.14687	53.74345	 
965.0	1.0	0.0	7.69275	7.23729	-6.52602	18.18973	26.10181	1.16217	0.86046	134.79943	142.66793	50.20368	0.34253	 	2.730162921E7	 	2.21346E-7	 	20206.37708	53.15396	 
960.0	1.0	0.0	7.69661	7.23365	-6.57296	18.09878	25.97995	1.1629	0.85992	135.52594	143.1686	50.48535	0.34223	 	3.073111399E7	 	1.9585E-7	 	19943.25566	52.62428	 
955.0	1.0	0.0	7.70046	7.23003	-6.61969	18.00773	25.86114	1.16351	0.85947	136.24142	143.66093	50.76282	0.34194	 	3.461572585E7	 	1.73167E-7	 	19682.30915	52.1893	 
950.0	1.0	0.0	7.70432	7.22641	-6.66649	17.91539	25.74528	1.16399	0.85912	136.94881	144.14653	51.03725	0.34166	 	3.90212578E7	 	1.52991E-7	 	19422.66057	51.92972	 
945.0	1.0	0.0	7.70825	7.22273	-6.71403	17.81902	25.63264	1.16432	0.85887	137.65422	144.62863	51.31104	0.34137	 	4.402676189E7	 	1.35043E-7	 	19162.38672	52.05477	 
940.35	1.0	0.0	7.71207	7.21915	-6.76029	17.72015	25.53141	1.16448	0.85876	138.32052	145.08013	51.56985	0.3411	 	4.931068732E7	 	1.20111E-7	 	18915.86118	 	 
940.0	1.0	0.0	7.71232	7.21891	-6.76333	17.7144	25.52372	1.16449	0.85874	138.36667	145.11194	51.58776	0.34108	 	4.972819456E7	 	1.19069E-7	 	18898.61823	52.7537	 
935.0	1.0	0.0	7.71593	7.21554	-6.80686	17.63238	25.41426	1.16469	0.8586	139.02479	145.56543	51.84312	0.34082	 	5.616399493E7	 	1.0499E-7	 	18651.9022	49.3432	 
930.0	1.0	0.0	7.71949	7.21221	-6.8499	17.55151	25.30692	1.16479	0.85853	139.67189	146.01102	52.09425	0.34057	 	6.347888455E7	 	9.25076E-8	 	18407.83277	48.81389	 
925.0	1.0	0.0	7.72302	7.20891	-6.89246	17.47176	25.2016	1.16479	0.85852	140.30842	146.44897	52.34132	0.34032	 	7.179987593E7	 	8.14468E-8	 	18166.34182	48.29819	 
920.0	1.0	0.0	7.72651	7.20566	-6.93454	17.39309	25.0982	1.16471	0.85858	140.93478	146.87957	52.58451	0.34008	 	8.127340802E7	 	7.16528E-8	 	17927.363	47.79576	 
915.0	1.0	0.0	7.72997	7.20243	-6.97616	17.31548	24.99662	1.16454	0.8587	141.5514	147.30308	52.82395	0.33984	 	9.206850327E7	 	6.29864E-8	 	17690.83134	47.30633	 
910.0	1.0	0.0	7.73339	7.19925	-7.01733	17.2389	24.89676	1.1643	0.85889	142.15866	147.71973	53.05981	0.33961	 	1.043804373E8	 	5.53232E-8	 	17456.68339	46.82959	 
905.0	1.0	0.0	7.73678	7.19609	-7.05807	17.16332	24.79854	1.16397	0.85913	142.75693	148.12979	53.29223	0.33938	 	1.18435061E8	 	4.8552E-8	 	17224.85707	46.36526	 
900.0	1.0	0.0	7.74014	7.19297	-7.09837	17.0887	24.70188	1.16356	0.85943	143.34659	148.53346	53.52135	0.33915	 	1.3449387E8	 	4.25733E-8	 	16995.2917	45.91307	 
895.0	1.0	0.0	7.74346	7.18988	-7.13826	17.01503	24.60668	1.16309	0.85978	143.92797	148.93099	53.7473	0.33893	 	1.528599545E8	 	3.72985E-8	 	16767.92808	45.47272	 
890.0	1.0	0.0	7.74676	7.18683	-7.17774	16.94227	24.51289	1.16254	0.86019	144.50141	149.32258	53.97021	0.33871	 	1.738849897E8	 	3.26483E-8	 	16542.7082	45.04397	 
