T (C)	Fraction solid (wt)-TOTAL	Fraction liquid (wt)-LIQUID	Density (g/(cm)^3)-TOTAL	Molar volume (cm^3)-TOTAL	Volume change (%)-  	Average expansion coeff. (10e-6 1/K)-  	Thermal conductivity (W/(m*K))-TOTAL	Electrical resistivity (10e-6 Ohm*m)-TOTAL	Electrical conductivity (10e6 1/(Ohm*m))-TOTAL	Young's modulus (GPa)-TOTAL	Bulk modulus (GPa)-TOTAL	Shear modulus(GPa)-TOTAL	Poisson's ratio-TOTAL	Liquid viscosity (mPa s)-  	Total viscosity (mPa s)-  	Liquid diffusivity (10e-9 (m^2)/s)-  	Total diffusivity (10e-9 (m^2)/s)-  	Surface Tension (mN/m)-  	Enthalpy (J/mole)-TOTAL	Specific heat (J/(mole K))-TOTAL	Latent heat (J/mole)-TOTAL
1400.0	0.0	1.0	8.27839	7.97932	0.0	28.29801	31.07965	1.31894	0.75818	0.0	140.15528	0.0	0.5	10.35995	10.35995	0.78825	0.78825	1874.77916	58916.027	 	0.0
1395.0	0.0	1.0	8.28247	7.97539	-0.0492546	28.26746	30.98078	1.31919	0.75804	0.0	140.31827	0.0	0.5	10.48155	10.48155	0.77678	0.77678	1876.66589	58717.015	39.8024	0.0
1390.0	0.0	1.0	8.28654	7.97147	-0.0983618	28.23708	30.88192	1.31945	0.75789	0.0	140.48126	0.0	0.5	10.60532	10.60532	0.76541	0.76541	1878.55253	58518.472	39.7086	0.0
1385.0	0.0	1.0	8.2906	7.96757	-0.14732	28.20689	30.78306	1.31971	0.75774	0.0	140.64425	0.0	0.5	10.73132	10.73132	0.75415	0.75415	1880.43908	58320.396	39.6152	0.0
1380.0	0.0	1.0	8.29466	7.96367	-0.19613	28.17688	30.68419	1.31997	0.75759	0.0	140.80724	0.0	0.5	10.85959	10.85959	0.74299	0.74299	1882.32555	58122.783	39.5226	0.0
1375.0	0.0	1.0	8.2987	7.95979	-0.2448	28.14705	30.58533	1.32023	0.75744	0.0	140.97023	0.0	0.5	10.99018	10.99018	0.73195	0.73195	1884.21192	57925.628	39.431	0.0
1372.17	0.0	1.0	8.30099	7.9576	-0.27227	28.13026	30.5294	1.32038	0.75736	0.0	141.06244	0.0	0.5	11.06512	11.06512	0.72574	0.72574	1885.27914	57814.287	39.3591	0.0
1370.0	0.12163	0.87837	8.34381	7.91676	-0.78409	26.75914	30.90072	1.30279	0.76758	0.024995	142.60222	0.00842472	0.48343	11.21585	24.61103	0.71504	0.32586	1887.50949	56265.141	713.51404	1463.789
1365.0	0.35374	0.64626	8.4267	7.83893	-1.75946	24.14947	31.62605	1.26904	0.788	1.8629	145.68957	0.64183	0.45124	11.56615	877.24055	0.69128	0.00911427	1892.5828	53324.77	588.0742	4207.913
1360.0	0.51397	0.48603	8.48529	7.78462	-2.44003	22.34225	32.13668	1.24506	0.80317	8.55006	147.985	2.9926	0.42853	11.92133	4066.68368	0.66863	0.00196007	1897.5874	51275.812	409.7916	6061.072
1355.0	0.6276	0.3724	8.52778	7.74562	-2.92884	21.05817	32.49543	1.22755	0.81463	19.42137	149.74534	6.87646	0.41216	12.28148	9538.63988	0.64704	8.33095E-4	1902.52417	49797.623	295.6378	7343.909
1350.0	0.71004	0.28996	8.55935	7.71673	-3.29085	20.12062	32.74243	1.21455	0.82335	32.34574	151.13338	11.55111	0.40011	12.64644	16541.68073	0.62644	4.78923E-4	1907.39613	48694.664	220.5918	8251.956
1345.0	0.77106	0.22894	8.58334	7.69479	-3.56581	19.42141	32.90668	1.20476	0.83004	45.56456	152.25864	16.37739	0.39108	13.01615	24389.94183	0.60677	3.23813E-4	1912.20634	47844.363	170.0602	8907.785
1340.0	0.81705	0.18295	8.602	7.67772	-3.77981	18.88948	33.0097	1.19729	0.83522	58.04509	153.19463	20.96716	0.38419	13.39082	32642.49455	0.58797	2.412E-4	1916.95819	47167.955	135.2816	9390.155
1335.0	0.85227	0.14773	8.61683	7.66409	-3.95059	18.4763	33.0673	1.1915	0.83928	69.3192	153.99193	25.13672	0.37884	13.7702	41068.79694	0.57	1.91118E-4	1921.6562	46613.674	110.8562	9750.83
1330.0	0.87966	0.12034	8.62887	7.65299	-4.08975	18.15016	33.0909	1.18695	0.8425	79.25333	154.68631	28.82715	0.37463	14.15472	49574.92046	0.55279	1.57833E-4	1926.3041	46146.783	93.3782	10024.545
1325.0	0.90126	0.0987386	8.63884	7.64375	-4.20554	17.88842	33.08891	1.18332	0.84508	87.89572	155.30327	32.04926	0.37126	14.54459	58151.02227	0.53629	1.34136E-4	1930.9061	45743.523	80.652	10235.053
1320.0	0.91851	0.0814866	8.64727	7.63589	-4.30403	17.67436	33.06741	1.18038	0.84718	95.37079	155.8605	34.8444	0.36852	14.93997	66830.31389	0.52047	1.16351E-4	1935.46751	45387.353	71.234	10398.895
1315.0	0.93246	0.067542	8.65452	7.62908	-4.38933	17.49672	33.03092	1.17798	0.84891	101.82896	156.37149	37.26521	0.36627	15.34109	75670.25169	0.50527	1.02436E-4	1939.9927	45066.564	64.1578	10527.774
1310.0	0.94385	0.0561454	8.66087	7.6231	-4.46426	17.34776	32.98281	1.17598	0.85035	107.41713	156.84645	39.36424	0.3644	15.74863	84739.32779	0.49064	9.11851E-5	1944.48457	44772.738	58.7652	10630.107
1305.0	0.95326	0.0467356	8.66652	7.61775	-4.53136	17.22039	32.92559	1.1743	0.85157	112.27189	157.29236	41.19105	0.36282	16.16273	94111.34471	0.47656	8.18452E-5	1948.94942	44499.736	54.6004	10712.029
1300.0	0.96111	0.038892	8.67161	7.61291	-4.59207	17.11067	32.86116	1.17288	0.8526	116.50883	157.71514	42.78786	0.36147	16.58401	103861.511	0.46299	7.39269E-5	1953.38955	44243.019	51.3434	10778.076
1295.0	0.9677	0.032296	8.67626	7.60846	-4.6478	17.01468	32.79098	1.17165	0.85349	120.22811	158.1189	44.19152	0.36031	17.01238	114066.8298	0.44989	6.70988E-5	1957.81015	43999.188	48.7662	10831.644
1290.0	0.9733	0.0267044	8.68056	7.60433	-4.69948	16.92987	32.71618	1.17059	0.85427	123.51262	158.50701	45.43264	0.35929	17.44886	124805.2108	0.43724	6.113E-5	1962.21426	43765.668	46.704	10875.306
1285.0	0.97807	0.0219274	8.68457	7.60047	-4.74787	16.8541	32.63762	1.16965	0.85495	126.43119	158.882	46.53674	0.3584	17.89371	136155.1975	0.42501	5.5855E-5	1966.60641	43540.486	45.0364	10911.031
1283.83	0.97905	0.0209512	8.68546	7.59962	-4.75862	16.83798	32.61866	1.16945	0.8551	127.0448	158.96747	46.76904	0.35821	17.99922	138886.7618	0.4222	5.47153E-5	1967.63395	43489.156	 	10918.059
1280.0	0.98548	0.0145234	8.68979	7.5957	-4.80767	16.74385	32.56795	1.16839	0.85588	130.84114	159.32687	48.20616	0.3571	18.20577	150031.5801	0.41638	5.05263E-5	1969.51796	43287.724	50.5524	10974.735
1275.69	0.99144	0.00856461	8.69418	7.59173	-4.85739	16.65351	32.5058	1.16738	0.85662	134.50076	159.70713	49.5932	0.35604	18.43819	162872.9919	0.40999	4.64136E-5	1971.62545	43073.957	 	11026.021
1275.69	0.99144	0.00856461	8.69418	7.59173	-4.85739	16.65351	32.5058	1.16738	0.85662	134.50076	159.70713	49.5932	0.35604	18.43819	162872.9919	0.40999	4.64136E-5	1971.62546	43073.957	 	11026.021
1275.0	0.99255	0.00744952	8.69497	7.59105	-4.866	16.63714	32.49936	1.16709	0.85683	135.18433	159.7728	49.85239	0.35585	18.46261	165140.4828	0.40927	4.57558E-5	1971.81741	43037.348	50.0752	11036.448
1270.0	1.0	0.0	8.70039	7.58631	-4.92538	16.52641	32.44943	1.16511	0.85829	139.85298	160.23531	51.62403	0.35453	 	182060.6391	 	4.13694E-5	 	42779.632	51.5432	11105.894
1265.0	1.0	0.0	8.7029	7.58411	-4.95292	16.51038	32.35366	1.16477	0.85854	140.2716	160.53346	51.78484	0.35437	 	195275.2634	 	3.84448E-5	 	42607.10127	34.50615	 
1260.0	1.0	0.0	8.7054	7.58193	-4.98027	16.49477	32.25793	1.16443	0.85879	140.6897	160.83101	51.94548	0.35421	 	209544.8644	 	3.57104E-5	 	42428.23555	35.77314	 
1255.0	1.0	0.0	8.7079	7.57975	-5.00758	16.47917	32.1622	1.16409	0.85904	141.10704	161.12704	52.10587	0.35404	 	224961.0073	 	3.31547E-5	 	42249.60127	35.72686	 
1250.0	1.0	0.0	8.7104	7.57757	-5.03486	16.46356	32.06647	1.16374	0.8593	141.52364	161.42156	52.26603	0.35388	 	241623.8974	 	3.07673E-5	 	42071.19815	35.68062	 
1245.0	1.0	0.0	8.7129	7.5754	-5.06209	16.44795	31.97074	1.1634	0.85955	141.93949	161.71455	52.42595	0.35371	 	259643.1883	 	2.85381E-5	 	41893.02592	35.63445	 
1240.0	1.0	0.0	8.7154	7.57323	-5.08928	16.43233	31.875	1.16305	0.85981	142.35458	162.00604	52.58563	0.35355	 	279138.936	 	2.64575E-5	 	41715.08434	35.58832	 
1235.0	1.0	0.0	8.71789	7.57106	-5.11642	16.41672	31.77927	1.1627	0.86007	142.76893	162.29603	52.74508	0.35339	 	300242.6569	 	2.45165E-5	 	41537.37314	35.54224	 
1230.0	1.0	0.0	8.72038	7.5689	-5.14353	16.4011	31.68354	1.16234	0.86033	143.18253	162.58452	52.90428	0.35322	 	323098.4997	 	2.27067E-5	 	41359.89205	35.49622	 
1225.0	1.0	0.0	8.72287	7.56674	-5.1706	16.38547	31.5878	1.16199	0.86059	143.59538	162.87152	53.06325	0.35306	 	347864.5455	 	2.102E-5	 	41182.64084	35.45024	 
1220.0	1.0	0.0	8.72536	7.56459	-5.19762	16.36985	31.49207	1.16163	0.86086	144.00748	163.15703	53.22198	0.35289	 	374714.2502	 	1.94487E-5	 	41005.61922	35.40432	 
1215.0	1.0	0.0	8.72784	7.56243	-5.22461	16.35422	31.39634	1.16127	0.86112	144.41883	163.44105	53.38047	0.35273	 	403838.0466	 	1.79857E-5	 	40828.82693	35.35846	 
1210.0	1.0	0.0	8.73033	7.56028	-5.25155	16.33859	31.3006	1.16091	0.86139	144.82944	163.7236	53.53872	0.35257	 	435445.1233	 	1.66241E-5	 	40652.26373	35.31264	 
1205.0	1.0	0.0	8.73281	7.55814	-5.27845	16.32296	31.20487	1.16055	0.86166	145.23929	164.00467	53.69674	0.3524	 	469765.4034	 	1.53576E-5	 	40475.92936	35.26687	 
1200.0	1.0	0.0	8.73528	7.55599	-5.30531	16.30733	31.10913	1.16018	0.86194	145.64839	164.28428	53.85451	0.35224	 	507051.7451	 	1.41802E-5	 	40299.82357	35.22116	 
1195.0	1.0	0.0	8.73776	7.55385	-5.33213	16.29169	31.0134	1.15981	0.86221	146.05675	164.56242	54.01205	0.35208	 	547582.3903	 	1.3086E-5	 	40123.94607	35.1755	 
1190.0	1.0	0.0	8.74023	7.55172	-5.35891	16.27606	30.91766	1.15944	0.86249	146.46436	164.83911	54.16935	0.35191	 	591663.6932	 	1.20698E-5	 	39948.29664	35.12989	 
1185.0	1.0	0.0	8.7427	7.54958	-5.38564	16.26042	30.82192	1.15907	0.86276	146.87121	165.11434	54.3264	0.35175	 	639633.1601	 	1.11265E-5	 	39772.87501	35.08433	 
1180.0	1.0	0.0	8.74517	7.54745	-5.41233	16.24478	30.72619	1.15869	0.86304	147.27732	165.38812	54.48322	0.35158	 	691862.8392	 	1.02513E-5	 	39597.68093	35.03882	 
1175.0	1.0	0.0	8.74763	7.54533	-5.43899	16.22914	30.63045	1.15831	0.86332	147.68268	165.66046	54.6398	0.35142	 	748763.1042	 	9.43965E-6	 	39422.71413	34.99336	 
1170.0	1.0	0.0	8.75009	7.5432	-5.4656	16.2135	30.53471	1.15793	0.86361	148.08729	165.93136	54.79614	0.35126	 	810786.878	 	8.68743E-6	 	39247.97438	34.94795	 
1165.0	1.0	0.0	8.75255	7.54108	-5.49217	16.19786	30.43898	1.15755	0.86389	148.49115	166.20082	54.95225	0.35109	 	878434.3523	 	7.99064E-6	 	39073.46141	34.90259	 
1160.0	1.0	0.0	8.75501	7.53897	-5.51869	16.18221	30.34324	1.15717	0.86418	148.89426	166.46886	55.10811	0.35093	 	952258.2649	 	7.34554E-6	 	38899.17496	34.85729	 
1155.0	1.0	0.0	8.75747	7.53685	-5.54518	16.16657	30.2475	1.15678	0.86447	149.29662	166.73547	55.26373	0.35076	 	1032869.804	 	6.74862E-6	 	38725.11479	34.81203	 
1150.0	1.0	0.0	8.75992	7.53474	-5.57162	16.15093	30.15176	1.15639	0.86476	149.69824	167.00066	55.41911	0.3506	 	1120945.216	 	6.19659E-6	 	38551.28063	34.76683	 
1145.0	1.0	0.0	8.76237	7.53264	-5.59802	16.13529	30.05602	1.156	0.86505	150.0991	167.26443	55.57426	0.35044	 	1217233.215	 	5.68637E-6	 	38377.67225	34.72168	 
1140.0	1.0	0.0	8.76482	7.53053	-5.62438	16.11964	29.96028	1.1556	0.86535	150.49922	167.52679	55.72916	0.35027	 	1322563.281	 	5.21505E-6	 	38204.28939	34.67657	 
1135.0	1.0	0.0	8.76726	7.52843	-5.6507	16.104	29.86454	1.15521	0.86565	150.89858	167.78775	55.88382	0.35011	 	1437854.978	 	4.77992E-6	 	38031.13179	34.63152	 
1130.0	1.0	0.0	8.7697	7.52634	-5.67697	16.08836	29.7688	1.15481	0.86595	151.2972	168.0473	56.03825	0.34995	 	1564128.406	 	4.37843E-6	 	37858.1992	34.58652	 
1125.0	1.0	0.0	8.77214	7.52424	-5.7032	16.07272	29.67306	1.1544	0.86625	151.69507	168.30546	56.19243	0.34978	 	1702515.954	 	4.0082E-6	 	37685.49136	34.54157	 
1120.0	1.0	0.0	8.77458	7.52215	-5.72939	16.05708	29.57732	1.154	0.86655	152.09218	168.56222	56.34638	0.34962	 	1854275.508	 	3.667E-6	 	37513.00804	34.49666	 
1115.0	1.0	0.0	8.77701	7.52007	-5.75554	16.04144	29.48158	1.15359	0.86686	152.48855	168.8176	56.50008	0.34945	 	2020805.308	 	3.35273E-6	 	37340.74897	34.45181	 
1110.0	1.0	0.0	8.77944	7.51798	-5.78164	16.0258	29.38584	1.15318	0.86717	152.88417	169.07159	56.65354	0.34929	 	2203660.682	 	3.06345E-6	 	37168.71389	34.40701	 
1105.0	1.0	0.0	8.78187	7.51591	-5.80771	16.01016	29.2901	1.15277	0.86748	153.27905	169.32421	56.80677	0.34913	 	2404572.903	 	2.79734E-6	 	36996.90257	34.36227	 
1100.0	1.0	0.0	8.7843	7.51383	-5.83373	15.99453	29.19435	1.15235	0.86779	153.67317	169.57545	56.95975	0.34896	 	2625470.438	 	2.55269E-6	 	36825.31475	34.31756	 
1095.0	1.0	0.0	8.78672	7.51176	-5.8597	15.9789	29.09861	1.15193	0.86811	154.06654	169.82531	57.11249	0.3488	 	2868502.948	 	2.3279E-6	 	36653.95016	34.27292	 
1090.0	1.0	0.0	8.78915	7.50969	-5.88564	15.96326	29.00287	1.15151	0.86842	154.45916	170.07382	57.26499	0.34864	 	3136068.371	 	2.12151E-6	 	36482.80857	34.22832	 
1085.0	1.0	0.0	8.79156	7.50762	-5.91153	15.94764	28.90712	1.15109	0.86874	154.85104	170.32096	57.41725	0.34847	 	3430843.541	 	1.93212E-6	 	36311.88972	34.18377	 
1080.0	1.0	0.0	8.79398	7.50556	-5.93738	15.93201	28.81138	1.15066	0.86906	155.24216	170.56675	57.56927	0.34831	 	3755818.821	 	1.75844E-6	 	36141.19335	34.13927	 
1075.0	1.0	0.0	8.79639	7.5035	-5.96319	15.91639	28.71564	1.15023	0.86939	155.63254	170.81118	57.72105	0.34814	 	4114337.299	 	1.59928E-6	 	35970.71923	34.09482	 
1070.0	1.0	0.0	8.7988	7.50144	-5.98895	15.90077	28.61989	1.1498	0.86972	156.02217	171.05426	57.87259	0.34798	 	4510139.199	 	1.45352E-6	 	35800.46707	34.05043	 
1065.0	1.0	0.0	8.80121	7.49939	-6.01467	15.88515	28.52415	1.14937	0.87005	156.41105	171.296	58.02389	0.34782	 	4947412.221	 	1.32012E-6	 	35630.43665	34.00608	 
1060.0	1.0	0.0	8.80362	7.49734	-6.04035	15.86954	28.4284	1.14893	0.87038	156.79918	171.53641	58.17494	0.34765	 	5430848.673	 	1.19811E-6	 	35460.62769	33.96179	 
1055.0	1.0	0.0	8.80602	7.4953	-6.06599	15.85393	28.33265	1.14849	0.87071	157.18656	171.77547	58.32576	0.34749	 	5965710.343	 	1.0866E-6	 	35291.03995	33.91755	 
1050.0	1.0	0.0	8.80842	7.49325	-6.09158	15.83832	28.23691	1.14804	0.87105	157.57319	172.01321	58.47633	0.34732	 	6557902.227	 	9.84761E-7	 	35121.67316	33.87336	 
1045.0	1.0	0.0	8.81082	7.49122	-6.11713	15.82272	28.14116	1.1476	0.87139	157.95907	172.24962	58.62666	0.34716	 	7214056.404	 	8.91809E-7	 	34952.52709	33.82921	 
1040.0	1.0	0.0	8.81321	7.48918	-6.14263	15.80712	28.04541	1.14715	0.87173	158.3442	172.48471	58.77675	0.347	 	7941627.512	 	8.07033E-7	 	34783.60146	33.78513	 
1035.0	1.0	0.0	8.8156	7.48715	-6.1681	15.79153	27.94967	1.14669	0.87207	158.72858	172.71847	58.9266	0.34683	 	8749001.543	 	7.2977E-7	 	34614.89601	33.74109	 
1030.0	1.0	0.0	8.81799	7.48512	-6.19352	15.77594	27.85392	1.14624	0.87242	159.11222	172.95093	59.07621	0.34667	 	9645619.917	 	6.59403E-7	 	34446.41051	33.6971	 
1029.54	1.0	0.0	8.81821	7.48493	-6.19585	15.77451	27.84512	1.14619	0.87245	159.14745	172.97223	59.08995	0.34665	 	9732883.512	 	6.5326E-7	 	34430.93344	 	 
1025.0	1.0	0.0	8.82118	7.48242	-6.22738	15.72876	27.85537	1.14178	0.87583	159.64892	173.33916	59.28308	0.3465	 	1.063966183E7	 	5.95503E-7	 	34231.61227	42.95965	 
1020.0	1.0	0.0	8.82442	7.47967	-6.26183	15.67891	27.8664	1.13693	0.87956	160.19893	173.74006	59.49498	0.34632	 	1.174476655E7	 	5.37392E-7	 	34012.75161	43.77213	 
1015.0	1.0	0.0	8.82764	7.47694	-6.296	15.62963	27.87697	1.13211	0.88331	160.74666	174.1377	59.70608	0.34615	 	1.297459271E7	 	4.84573E-7	 	33794.55093	43.64014	 
1010.0	1.0	0.0	8.83083	7.47424	-6.32989	15.58091	27.88715	1.1273	0.88708	161.29215	174.53213	59.9164	0.34598	 	1.43443115E7	 	4.36601E-7	 	33577.00092	43.51	 
1005.0	1.0	0.0	8.834	7.47156	-6.3635	15.53274	27.897	1.12251	0.89086	161.83544	174.92342	60.12595	0.3458	 	1.587107046E7	 	3.93063E-7	 	33360.09248	43.38169	 
1000.0	1.0	0.0	8.83715	7.4689	-6.39684	15.4851	27.90655	1.11774	0.89467	162.37658	175.31162	60.33476	0.34563	 	1.757426786E7	 	3.53581E-7	 	33143.81661	43.25517	 
995.0	1.0	0.0	8.84027	7.46626	-6.42991	15.438	27.91582	1.11298	0.89849	162.9156	175.6968	60.54282	0.34546	 	1.947586735E7	 	3.17805E-7	 	32928.16448	43.13043	 
990.0	1.0	0.0	8.84337	7.46364	-6.46272	15.39143	27.92483	1.10823	0.90234	163.45255	176.07899	60.75016	0.34528	 	2.160075939E7	 	2.85412E-7	 	32713.12739	43.00742	 
985.0	1.0	0.0	8.84645	7.46104	-6.49527	15.34538	27.9336	1.1035	0.90621	163.98746	176.45827	60.9568	0.34511	 	2.397717658E7	 	2.56107E-7	 	32498.69677	42.88612	 
980.0	1.0	0.0	8.84951	7.45847	-6.52757	15.29983	27.94214	1.09878	0.9101	164.52037	176.83466	61.16274	0.34494	 	2.66371716E7	 	2.29616E-7	 	32284.86421	42.76651	 
975.0	1.0	0.0	8.85254	7.45591	-6.55961	15.2548	27.95048	1.09407	0.91402	165.05132	177.20823	61.368	0.34477	 	2.961716757E7	 	2.05688E-7	 	32071.62141	42.64856	 
970.0	1.0	0.0	8.85555	7.45337	-6.59141	15.21026	27.95862	1.08937	0.91796	165.58034	177.57902	61.57258	0.34459	 	3.295859249E7	 	1.84095E-7	 	31858.96023	42.53224	 
965.0	1.0	0.0	8.85855	7.45085	-6.62296	15.16622	27.96658	1.08468	0.92193	166.10745	177.94707	61.77651	0.34442	 	3.670861133E7	 	1.64624E-7	 	31646.87264	42.41752	 
960.0	1.0	0.0	8.86152	7.44836	-6.65427	15.12267	27.97439	1.07999	0.92593	166.6327	178.31243	61.97979	0.34425	 	4.092097164E7	 	1.47081E-7	 	31435.35077	42.30438	 
955.0	1.0	0.0	8.86447	7.44588	-6.68535	15.0796	27.98204	1.07532	0.92995	167.15612	178.67514	62.18244	0.34408	 	4.565698128E7	 	1.3129E-7	 	31224.38683	42.19279	 
950.0	1.0	0.0	8.8674	7.44341	-6.71619	15.037	27.98956	1.07066	0.93401	167.67772	179.03523	62.38446	0.34391	 	5.098664013E7	 	1.17087E-7	 	31013.97322	42.08272	 
945.0	1.0	0.0	8.87031	7.44097	-6.74679	14.99488	27.99696	1.066	0.93809	168.19754	179.39276	62.58586	0.34373	 	5.698995124E7	 	1.04325E-7	 	30804.10243	41.97416	 
940.0	1.0	0.0	8.8732	7.43855	-6.77717	14.95322	28.00427	1.06134	0.9422	168.71561	179.74775	62.78666	0.34356	 	6.375844164E7	 	9.28674E-8	 	30594.76709	41.86707	 
935.0	1.0	0.0	8.87607	7.43614	-6.80733	14.91203	28.01148	1.0567	0.94634	169.23195	180.10024	62.98686	0.34339	 	7.139692807E7	 	8.25901E-8	 	30385.95995	41.76143	 
930.0	1.0	0.0	8.87892	7.43375	-6.83726	14.87129	28.01862	1.05206	0.95052	169.74658	180.45027	63.18647	0.34322	 	8.002556954E7	 	7.338E-8	 	30177.67389	41.65721	 
925.0	1.0	0.0	8.88176	7.43138	-6.86698	14.83101	28.0257	1.04742	0.95473	170.25954	180.79787	63.3855	0.34305	 	8.978225539E7	 	6.51339E-8	 	29969.90192	41.55439	 
920.0	1.0	0.0	8.88457	7.42903	-6.89648	14.79117	28.03273	1.04279	0.95897	170.77083	181.14307	63.58396	0.34288	 	1.008253874E8	 	5.7758E-8	 	29762.63716	41.45295	 
915.0	1.0	0.0	8.88737	7.42669	-6.92576	14.75178	28.03974	1.03816	0.96324	171.28049	181.48591	63.78186	0.34271	 	1.133371243E8	 	5.11665E-8	 	29555.87286	41.35286	 
910.0	1.0	0.0	8.89014	7.42437	-6.95484	14.71283	28.04673	1.03353	0.96756	171.78854	181.82641	63.9792	0.34253	 	1.275271694E8	 	4.52818E-8	 	29349.6024	41.25409	 
905.0	1.0	0.0	8.8929	7.42207	-6.98371	14.67431	28.05372	1.02891	0.9719	172.29499	182.1646	64.17599	0.34236	 	1.43637198E8	 	4.00332E-8	 	29143.81927	41.15663	 
900.0	1.0	0.0	8.89564	7.41978	-7.01237	14.63623	28.06072	1.02429	0.97629	172.79986	182.50051	64.37224	0.34219	 	1.619460386E8	 	3.53566E-8	 	28938.51709	41.06044	 
895.0	1.0	0.0	8.89837	7.41751	-7.04083	14.59857	28.06775	1.01966	0.98072	173.30318	182.83417	64.56796	0.34202	 	1.827757423E8	 	3.11937E-8	 	28733.68961	40.9655	 
890.0	1.0	0.0	8.90107	7.41526	-7.06909	14.56135	28.07482	1.01504	0.98518	173.80495	183.1656	64.76314	0.34185	 	2.064987025E8	 	2.74919E-8	 	28529.33066	40.87179	 
885.0	1.0	0.0	8.90376	7.41302	-7.09715	14.52454	28.08195	1.01042	0.98968	174.3052	183.49483	64.9578	0.34168	 	2.33546016E8	 	2.42035E-8	 	28325.43424	40.77928	 
880.0	1.0	0.0	8.90643	7.41079	-7.12502	14.48815	28.08915	1.0058	0.99423	174.80394	183.82188	65.15195	0.34151	 	2.644173137E8	 	2.12854E-8	 	28121.99446	40.68796	 
875.0	1.0	0.0	8.90909	7.40858	-7.15269	14.45218	28.09643	1.00118	0.99882	175.30118	184.14677	65.34558	0.34134	 	2.996923335E8	 	1.86986E-8	 	27919.00552	40.59779	 
870.0	1.0	0.0	8.91173	7.40639	-7.18018	14.41662	28.10382	0.99656	1.00345	175.79694	184.46953	65.5387	0.34117	 	3.400445615E8	 	1.64079E-8	 	27716.46177	40.50875	 
865.0	1.0	0.0	8.91435	7.40421	-7.20747	14.38148	28.11131	0.99194	1.00813	176.29124	184.79017	65.73132	0.341	 	3.86257331E8	 	1.43817E-8	 	27514.35767	40.42082	 
860.0	1.0	0.0	8.91695	7.40205	-7.23458	14.34674	28.11894	0.98731	1.01285	176.78408	185.10872	65.92345	0.34083	 	4.392428467E8	 	1.25913E-8	 	27312.68778	40.33398	 
855.0	1.0	0.0	8.91954	7.3999	-7.26151	14.31241	28.12671	0.98268	1.01762	177.27548	185.4252	66.11507	0.34066	 	5.000646946E8	 	1.1011E-8	 	27111.44682	40.24819	 
