T (C)	Fraction solid (wt)-TOTAL	Fraction liquid (wt)-LIQUID	Density (g/(cm)^3)-TOTAL	Molar volume (cm^3)-TOTAL	Volume change (%)-  	Average expansion coeff. (10e-6 1/K)-  	Thermal conductivity (W/(m*K))-TOTAL	Electrical resistivity (10e-6 Ohm*m)-TOTAL	Electrical conductivity (10e6 1/(Ohm*m))-TOTAL	Young's modulus (GPa)-TOTAL	Bulk modulus (GPa)-TOTAL	Shear modulus(GPa)-TOTAL	Poisson's ratio-TOTAL	Liquid viscosity (mPa s)-  	Total viscosity (mPa s)-  	Liquid diffusivity (10e-9 (m^2)/s)-  	Total diffusivity (10e-9 (m^2)/s)-  	Surface Tension (mN/m)-  	Enthalpy (J/mole)-TOTAL	Specific heat (J/(mole K))-TOTAL	Latent heat (J/mole)-TOTAL
1400.0	0.0	1.0	8.04928	7.87616	0.0	26.83717	30.23693	1.3557	0.73763	0.0	133.61371	0.0	0.5	9.69367	9.69367	0.84243	0.84243	1881.82017	59701.397	 	0.0
1395.0	0.0	1.0	8.05341	7.87213	-0.0512135	26.79671	30.13376	1.35628	0.73731	0.0	133.77497	0.0	0.5	9.80263	9.80263	0.83058	0.83058	1883.82801	59498.422	40.595	0.0
1390.0	0.0	1.0	8.05752	7.86811	-0.10227	26.75638	30.03059	1.35686	0.737	0.0	133.93623	0.0	0.5	9.91347	9.91347	0.81883	0.81883	1885.83617	59295.945	40.4954	0.0
1385.0	0.0	1.0	8.06163	7.8641	-0.15318	26.71616	29.92742	1.35744	0.73668	0.0	134.09749	0.0	0.5	10.02625	10.02625	0.80718	0.80718	1887.84462	59093.962	40.3966	0.0
1380.0	0.0	1.0	8.06573	7.8601	-0.20393	26.67607	29.82425	1.35803	0.73636	0.0	134.25875	0.0	0.5	10.14101	10.14101	0.79564	0.79564	1889.85339	58892.471	40.2982	0.0
1375.0	0.0	1.0	8.06982	7.85611	-0.25453	26.6361	29.72108	1.35862	0.73604	0.0	134.42001	0.0	0.5	10.25779	10.25779	0.78421	0.78421	1891.86247	58691.466	40.201	0.0
1373.97	0.0	1.0	8.07066	7.8553	-0.26492	26.6279	29.69988	1.35874	0.73597	0.0	134.45316	0.0	0.5	10.28205	10.28205	0.78187	0.78187	1892.27552	58650.204	40.14282	0.0010
1370.27	1.0	4.8367E-9	8.34344	7.59848	-3.52565	17.72724	33.94775	1.18605	0.84313	121.18254	148.03152	44.43602	0.36356	10.63831	37523.15398	0.75399	2.13765E-4	1898.68539	45762.91	 	12738.915
1373.97	1.0	0.0	8.32027	7.55976	-4.01716	16.32963	34.84433	1.15814	0.86346	119.76664	147.55353	43.87958	0.36472	 	0.0	 	NaN	 	58650.1885	 	 
1370.27	1.0	0.0	8.34344	7.59848	-3.52565	17.72723	33.94774	1.18605	0.84313	121.18256	148.03153	44.43602	0.36356	 	37523.237	 	2.13764E-4	 	45762.97447	 	 
1370.0	1.0	0.0	8.34358	7.59836	-3.52717	17.72661	33.94258	1.18604	0.84314	121.20754	148.05044	44.44553	0.36355	 	37647.56912	 	2.13023E-4	 	45752.86018	3246.96732	 
1365.0	1.0	0.0	8.346	7.59614	-3.55525	17.71517	33.84753	1.18575	0.84335	121.66727	148.39785	44.62055	0.36335	 	40020.77148	 	1.99781E-4	 	45566.67445	37.23715	 
1360.0	1.0	0.0	8.34843	7.59393	-3.58331	17.70372	33.75248	1.18546	0.84356	122.12632	148.74342	44.79537	0.36316	 	42559.5016	 	1.87291E-4	 	45380.71574	37.19174	 
1355.0	1.0	0.0	8.35086	7.59173	-3.61133	17.69226	33.65742	1.18517	0.84376	122.58467	149.08715	44.96999	0.36296	 	45276.3771	 	1.75513E-4	 	45194.98381	37.14639	 
1350.0	1.0	0.0	8.35329	7.58952	-3.63933	17.68079	33.56237	1.18487	0.84397	123.04234	149.42907	45.14441	0.36276	 	48185.05704	 	1.64412E-4	 	45009.47838	37.10109	 
1345.0	1.0	0.0	8.35571	7.58732	-3.6673	17.66931	33.46732	1.18458	0.84418	123.49932	149.76917	45.31862	0.36257	 	51300.33429	 	1.53952E-4	 	44824.19921	37.05583	 
1340.0	1.0	0.0	8.35814	7.58512	-3.69525	17.65782	33.37226	1.18428	0.84439	123.95561	150.10746	45.49263	0.36237	 	54638.23674	 	1.441E-4	 	44639.14602	37.01064	 
1335.0	1.0	0.0	8.36056	7.58292	-3.72316	17.64632	33.27721	1.18398	0.84461	124.41121	150.44395	45.66644	0.36217	 	58216.13806	 	1.34825E-4	 	44454.31855	36.96549	 
1330.0	1.0	0.0	8.36298	7.58072	-3.75105	17.63481	33.18216	1.18368	0.84482	124.86612	150.77865	45.84005	0.36198	 	62052.87915	 	1.26095E-4	 	44269.71654	36.9204	 
1325.0	1.0	0.0	8.3654	7.57853	-3.77891	17.6233	33.0871	1.18338	0.84504	125.32034	151.11157	46.01345	0.36178	 	66168.90126	 	1.17883E-4	 	44085.33971	36.87537	 
1320.0	1.0	0.0	8.36782	7.57634	-3.80674	17.61177	32.99205	1.18308	0.84525	125.77388	151.44271	46.18665	0.36158	 	70586.39207	 	1.1016E-4	 	43901.18781	36.83038	 
1315.0	1.0	0.0	8.37024	7.57415	-3.83455	17.60023	32.897	1.18277	0.84547	126.22672	151.77209	46.35965	0.36139	 	75329.44591	 	1.029E-4	 	43717.26056	36.78545	 
1310.0	1.0	0.0	8.37266	7.57196	-3.86232	17.58869	32.80194	1.18247	0.84569	126.67888	152.0997	46.53244	0.36119	 	80424.23978	 	9.60775E-5	 	43533.55769	36.74057	 
1305.0	1.0	0.0	8.37508	7.56977	-3.89007	17.57713	32.70689	1.18216	0.84591	127.13035	152.42556	46.70504	0.36099	 	85899.22665	 	8.96697E-5	 	43350.07893	36.69575	 
1300.0	1.0	0.0	8.3775	7.56759	-3.91779	17.56557	32.61184	1.18185	0.84613	127.58113	152.74967	46.87743	0.36079	 	91785.34799	 	8.36534E-5	 	43166.82401	36.65098	 
1295.0	1.0	0.0	8.37991	7.56541	-3.94548	17.554	32.51678	1.18153	0.84636	128.03123	153.07204	47.04961	0.3606	 	98116.26743	 	7.80069E-5	 	42983.79265	36.60627	 
1290.0	1.0	0.0	8.38232	7.56323	-3.97314	17.54242	32.42173	1.18122	0.84658	128.48063	153.39268	47.2216	0.3604	 	104928.6279	 	7.27099E-5	 	42800.98457	36.56162	 
1285.0	1.0	0.0	8.38474	7.56105	-4.00078	17.53083	32.32668	1.1809	0.84681	128.92935	153.7116	47.39338	0.3602	 	112262.3345	 	6.77426E-5	 	42618.39949	36.51702	 
1280.0	1.0	0.0	8.38715	7.55888	-4.02839	17.51923	32.23162	1.18059	0.84704	129.37737	154.0288	47.56495	0.36001	 	120160.8664	 	6.30866E-5	 	42436.03714	36.47247	 
1275.0	1.0	0.0	8.38956	7.55671	-4.05596	17.50763	32.13657	1.18027	0.84727	129.82471	154.34429	47.73632	0.35981	 	128671.6205	 	5.87242E-5	 	42253.89724	36.42798	 
1270.0	1.0	0.0	8.39197	7.55454	-4.08351	17.49601	32.04152	1.17994	0.8475	130.27136	154.65808	47.90749	0.35961	 	137846.2898	 	5.46386E-5	 	42071.97949	36.38355	 
1265.0	1.0	0.0	8.39438	7.55237	-4.11103	17.48439	31.94646	1.17962	0.84773	130.71732	154.97018	48.07846	0.35942	 	147741.2814	 	5.0814E-5	 	41890.28362	36.33917	 
1260.0	1.0	0.0	8.39679	7.5502	-4.13853	17.47276	31.85141	1.17929	0.84796	131.16259	155.28058	48.24922	0.35922	 	158418.1778	 	4.72353E-5	 	41708.80934	36.29486	 
1255.0	1.0	0.0	8.39919	7.54804	-4.16599	17.46112	31.75636	1.17897	0.8482	131.60718	155.58931	48.41978	0.35902	 	169944.2462	 	4.3888E-5	 	41527.55635	36.2506	 
1250.0	1.0	0.0	8.4016	7.54588	-4.19343	17.44947	31.6613	1.17864	0.84844	132.05107	155.89636	48.59013	0.35883	 	182393.0012	 	4.07588E-5	 	41346.52436	36.2064	 
1245.0	1.0	0.0	8.404	7.54372	-4.22083	17.43782	31.56625	1.17831	0.84868	132.49428	156.20174	48.76028	0.35863	 	195844.827	 	3.78346E-5	 	41165.71309	36.16225	 
1240.0	1.0	0.0	8.4064	7.54157	-4.24821	17.42615	31.4712	1.17797	0.84892	132.9368	156.50546	48.93023	0.35843	 	210387.6661	 	3.51033E-5	 	40985.12223	36.11817	 
1235.0	1.0	0.0	8.40881	7.53941	-4.27556	17.41448	31.37614	1.17764	0.84916	133.37863	156.80753	49.09997	0.35824	 	226117.7805	 	3.25534E-5	 	40804.75148	36.07415	 
1230.0	1.0	0.0	8.41121	7.53726	-4.30288	17.40281	31.28109	1.1773	0.8494	133.81977	157.10796	49.26951	0.35804	 	243140.5962	 	3.01739E-5	 	40624.60055	36.03019	 
1225.0	1.0	0.0	8.41361	7.53511	-4.33017	17.39112	31.18604	1.17696	0.84965	134.26022	157.40674	49.43884	0.35784	 	261571.6381	 	2.79545E-5	 	40444.66912	35.98629	 
1220.0	1.0	0.0	8.416	7.53296	-4.35743	17.37943	31.09098	1.17662	0.84989	134.69999	157.70389	49.60797	0.35764	 	281537.5662	 	2.58853E-5	 	40264.95689	35.94245	 
1215.0	1.0	0.0	8.4184	7.53082	-4.38466	17.36773	30.99593	1.17627	0.85014	135.13906	157.99942	49.77689	0.35745	 	303177.3265	 	2.39572E-5	 	40085.46356	35.89867	 
1210.0	1.0	0.0	8.4208	7.52868	-4.41186	17.35602	30.90087	1.17593	0.85039	135.57745	158.29333	49.94561	0.35725	 	326643.4276	 	2.21614E-5	 	39906.1888	35.85495	 
1205.0	1.0	0.0	8.42319	7.52654	-4.43903	17.34431	30.80582	1.17558	0.85064	136.01515	158.58562	50.11413	0.35705	 	352103.359	 	2.04897E-5	 	39727.13231	35.8113	 
1200.0	1.0	0.0	8.42558	7.5244	-4.46618	17.33259	30.71077	1.17523	0.8509	136.45216	158.87631	50.28244	0.35686	 	379741.1674	 	1.89342E-5	 	39548.29376	35.76771	 
1195.0	1.0	0.0	8.42798	7.52226	-4.49329	17.32086	30.61571	1.17488	0.85115	136.88848	159.1654	50.45054	0.35666	 	409759.21	 	1.74875E-5	 	39369.67283	35.72419	 
1190.0	1.0	0.0	8.43037	7.52013	-4.52037	17.30913	30.52066	1.17452	0.85141	137.32411	159.4529	50.61844	0.35646	 	442380.1055	 	1.61428E-5	 	39191.2692	35.68073	 
1185.0	1.0	0.0	8.43276	7.518	-4.54743	17.29738	30.42561	1.17416	0.85167	137.75906	159.73881	50.78614	0.35627	 	477848.9061	 	1.48936E-5	 	39013.08254	35.63733	 
1180.0	1.0	0.0	8.43514	7.51587	-4.57445	17.28564	30.33055	1.17381	0.85193	138.19331	160.02314	50.95363	0.35607	 	516435.5185	 	1.37335E-5	 	38835.11251	35.59401	 
1175.0	1.0	0.0	8.43753	7.51374	-4.60145	17.27388	30.2355	1.17344	0.85219	138.62688	160.30589	51.12091	0.35587	 	558437.4023	 	1.26569E-5	 	38657.35878	35.55075	 
1170.0	1.0	0.0	8.43992	7.51162	-4.62841	17.26212	30.14045	1.17308	0.85246	139.05976	160.58709	51.28799	0.35568	 	604182.581	 	1.16582E-5	 	38479.82101	35.50755	 
1165.0	1.0	0.0	8.4423	7.5095	-4.65535	17.25036	30.04539	1.17271	0.85272	139.49195	160.86672	51.45486	0.35548	 	654033.003	 	1.07323E-5	 	38302.49885	35.46443	 
1160.0	1.0	0.0	8.44468	7.50738	-4.68225	17.23859	29.95034	1.17235	0.85299	139.92345	161.14479	51.62153	0.35528	 	708388.2967	 	9.87431E-6	 	38125.39196	35.42138	 
1155.0	1.0	0.0	8.44707	7.50526	-4.70913	17.22681	29.85529	1.17198	0.85326	140.35427	161.42132	51.788	0.35508	 	767689.9674	 	9.07977E-6	 	37948.49998	35.3784	 
1150.0	1.0	0.0	8.44945	7.50315	-4.73597	17.21503	29.76023	1.1716	0.85353	140.78439	161.69631	51.95425	0.35489	 	832426.0929	 	8.34433E-6	 	37771.82256	35.33548	 
1145.0	1.0	0.0	8.45183	7.50104	-4.76279	17.20324	29.66518	1.17123	0.85381	141.21383	161.96977	52.1203	0.35469	 	903136.5785	 	7.664E-6	 	37595.35934	35.29264	 
1140.0	1.0	0.0	8.4542	7.49893	-4.78957	17.19145	29.57013	1.17085	0.85408	141.64258	162.24169	52.28615	0.35449	 	980419.0441	 	7.03499E-6	 	37419.10994	35.24988	 
1135.0	1.0	0.0	8.45658	7.49682	-4.81633	17.17965	29.47507	1.17047	0.85436	142.07063	162.51209	52.45179	0.3543	 	1064935.422	 	6.45375E-6	 	37243.074	35.20719	 
1130.0	1.0	0.0	8.45895	7.49471	-4.84305	17.16784	29.38002	1.17009	0.85464	142.49801	162.78098	52.61722	0.3541	 	1157419.36	 	5.91698E-6	 	37067.25115	35.16457	 
1125.0	1.0	0.0	8.46133	7.49261	-4.86974	17.15604	29.28497	1.1697	0.85492	142.92469	163.04835	52.78245	0.3539	 	1258684.525	 	5.42155E-6	 	36891.64099	35.12203	 
1120.0	1.0	0.0	8.4637	7.49051	-4.89641	17.14422	29.18991	1.16931	0.8552	143.35068	163.31422	52.94747	0.35371	 	1369633.939	 	4.96455E-6	 	36716.24315	35.07957	 
1115.0	1.0	0.0	8.46607	7.48841	-4.92304	17.1324	29.09486	1.16892	0.85549	143.77599	163.5786	53.11228	0.35351	 	1491270.467	 	4.54325E-6	 	36541.05723	35.03718	 
1110.0	1.0	0.0	8.46844	7.48632	-4.94964	17.12058	28.99981	1.16853	0.85578	144.2006	163.84148	53.27689	0.35331	 	1624708.612	 	4.15509E-6	 	36366.08284	34.99488	 
1105.0	1.0	0.0	8.47081	7.48423	-4.97621	17.10876	28.90475	1.16814	0.85606	144.62453	164.10287	53.44129	0.35312	 	1771187.806	 	3.79768E-6	 	36191.31956	34.95266	 
1100.0	1.0	0.0	8.47318	7.48214	-5.00275	17.09693	28.8097	1.16774	0.85636	145.04777	164.36279	53.60549	0.35292	 	1932087.364	 	3.46879E-6	 	36016.767	34.91051	 
1095.0	1.0	0.0	8.47554	7.48005	-5.02926	17.08509	28.71465	1.16734	0.85665	145.47032	164.62123	53.76947	0.35272	 	2108943.357	 	3.16633E-6	 	35842.42473	34.86845	 
1090.0	1.0	0.0	8.4779	7.47796	-5.05574	17.07325	28.61959	1.16693	0.85695	145.89218	164.8782	53.93325	0.35253	 	2303467.647	 	2.88834E-6	 	35668.29233	34.82648	 
1085.0	1.0	0.0	8.48027	7.47588	-5.08219	17.06141	28.52454	1.16653	0.85724	146.31336	165.13371	54.09683	0.35233	 	2517569.369	 	2.63301E-6	 	35494.36936	34.78459	 
1080.0	1.0	0.0	8.48263	7.4738	-5.10861	17.04957	28.42949	1.16612	0.85755	146.73384	165.38777	54.2602	0.35213	 	2753379.221	 	2.39865E-6	 	35320.65541	34.74279	 
1075.0	1.0	0.0	8.48499	7.47172	-5.13499	17.03772	28.33443	1.16571	0.85785	147.15364	165.64037	54.42336	0.35193	 	3013276.914	 	2.18366E-6	 	35147.15001	34.70108	 
1070.0	1.0	0.0	8.48734	7.46965	-5.16135	17.02587	28.23938	1.16529	0.85815	147.57275	165.89153	54.58631	0.35174	 	3299922.257	 	1.98659E-6	 	34973.85271	34.65946	 
1065.0	1.0	0.0	8.4897	7.46757	-5.18767	17.01401	28.14433	1.16488	0.85846	147.99116	166.14125	54.74906	0.35154	 	3616290.348	 	1.80604E-6	 	34800.76307	34.61793	 
1060.0	1.0	0.0	8.49206	7.4655	-5.21396	17.00216	28.04927	1.16446	0.85877	148.4089	166.38953	54.91159	0.35134	 	3965711.474	 	1.64076E-6	 	34627.8806	34.57649	 
1055.0	1.0	0.0	8.49441	7.46343	-5.24022	16.9903	27.95422	1.16403	0.85908	148.82594	166.63639	55.07392	0.35115	 	4351916.375	 	1.48954E-6	 	34455.20484	34.53515	 
1050.0	1.0	0.0	8.49676	7.46137	-5.26645	16.97844	27.85917	1.16361	0.8594	149.24229	166.88182	55.23605	0.35095	 	4779087.638	 	1.3513E-6	 	34282.7353	34.49391	 
1045.0	1.0	0.0	8.49911	7.4593	-5.29265	16.96657	27.76411	1.16318	0.85971	149.65796	167.12584	55.39796	0.35075	 	5251918.09	 	1.22499E-6	 	34110.47148	34.45276	 
1040.0	1.0	0.0	8.50146	7.45724	-5.31881	16.95471	27.66906	1.16275	0.86003	150.07293	167.36845	55.55967	0.35056	 	5775677.217	 	1.10968E-6	 	33938.41289	34.41172	 
1035.0	1.0	0.0	8.50381	7.45518	-5.34495	16.94284	27.57401	1.16231	0.86035	150.48722	167.60965	55.72117	0.35036	 	6356286.76	 	1.00448E-6	 	33766.559	34.37078	 
1030.0	1.0	0.0	8.50615	7.45313	-5.37105	16.93097	27.47895	1.16188	0.86068	150.90082	167.84946	55.88247	0.35016	 	7000406.844	 	9.08569E-7	 	33594.9093	34.32994	 
1025.0	1.0	0.0	8.5085	7.45108	-5.39712	16.91911	27.3839	1.16144	0.861	151.31373	168.08786	56.04355	0.34997	 	7715534.172	 	8.21194E-7	 	33423.46326	34.28921	 
1020.0	1.0	0.0	8.51084	7.44902	-5.42316	16.90724	27.28885	1.16099	0.86133	151.72596	168.32488	56.20443	0.34977	 	8510114.094	 	7.41652E-7	 	33252.22033	34.24859	 
1015.0	1.0	0.0	8.51318	7.44698	-5.44917	16.89536	27.19379	1.16055	0.86166	152.13749	168.56052	56.36509	0.34957	 	9393668.618	 	6.69296E-7	 	33081.17996	34.20807	 
1010.0	1.0	0.0	8.51552	7.44493	-5.47514	16.88349	27.09874	1.1601	0.862	152.54834	168.79478	56.52556	0.34937	 	1.037694274E7	 	6.03524E-7	 	32910.34158	34.16768	 
1005.0	1.0	0.0	8.51786	7.44289	-5.50109	16.87162	27.00369	1.15964	0.86233	152.95849	169.02767	56.68581	0.34918	 	1.147207193E7	 	5.43784E-7	 	32739.70462	34.12739	 
1000.0	1.0	0.0	8.52019	7.44085	-5.527	16.85975	26.90863	1.15919	0.86267	153.36796	169.25918	56.84585	0.34898	 	1.26927739E7	 	4.89564E-7	 	32569.26848	34.08723	 
995.0	1.0	0.0	8.52253	7.43881	-5.55288	16.84788	26.81358	1.15873	0.86301	153.77674	169.48934	57.00569	0.34878	 	1.405456846E7	 	4.40392E-7	 	32399.03257	34.04718	 
990.0	1.0	0.0	8.52486	7.43677	-5.57872	16.83601	26.71853	1.15827	0.86336	154.18483	169.71814	57.16531	0.34859	 	1.557502988E7	 	3.95834E-7	 	32228.99627	34.00726	 
985.0	1.0	0.0	8.52719	7.43474	-5.60454	16.82414	26.62347	1.1578	0.86371	154.59224	169.94559	57.32473	0.34839	 	1.727407659E7	 	3.55487E-7	 	32059.15895	33.96746	 
980.0	1.0	0.0	8.52952	7.43271	-5.63032	16.81227	26.52842	1.15733	0.86406	154.99895	170.17169	57.48394	0.34819	 	1.917430434E7	 	3.18985E-7	 	31889.51998	33.92779	 
975.0	1.0	0.0	8.53185	7.43068	-5.65607	16.80041	26.43337	1.15686	0.86441	155.40498	170.39646	57.64294	0.348	 	2.130136959E7	 	2.85987E-7	 	31720.07869	33.88826	 
970.0	1.0	0.0	8.53418	7.42865	-5.68179	16.78854	26.33831	1.15638	0.86477	155.81031	170.61988	57.80173	0.3478	 	2.368443104E7	 	2.56181E-7	 	31550.83441	33.84886	 
965.0	1.0	0.0	8.5365	7.42663	-5.70747	16.77668	26.24326	1.1559	0.86512	156.21496	170.84198	57.96031	0.3476	 	2.635665881E7	 	2.29282E-7	 	31381.78646	33.80959	 
960.0	1.0	0.0	8.53882	7.42461	-5.73313	16.76482	26.14821	1.15542	0.86549	156.61892	171.06275	58.11868	0.34741	 	2.93558221E7	 	2.05026E-7	 	31212.93413	33.77047	 
955.0	1.0	0.0	8.54115	7.42259	-5.75875	16.75296	26.05315	1.15493	0.86585	157.02219	171.2822	58.27685	0.34721	 	3.272496814E7	 	1.83172E-7	 	31044.27671	33.73148	 
950.0	1.0	0.0	8.54347	7.42058	-5.78433	16.7411	25.9581	1.15444	0.86622	157.42478	171.50034	58.4348	0.34701	 	3.651320739E7	 	1.635E-7	 	30875.81345	33.69265	 
945.66	1.0	0.0	8.54548	7.41883	-5.80653	16.73081	25.87552	1.15402	0.86654	157.77395	171.68878	58.57185	0.34684	 	4.018766266E7	 	1.48023E-7	 	30729.62246	 	 
945.0	1.0	0.0	8.54594	7.41843	-5.81157	16.72249	25.88631	1.15291	0.86737	157.85718	171.74658	58.60402	0.34681	 	4.077009758E7	 	1.4583E-7	 	30696.90135	35.78242	 
940.0	1.0	0.0	8.54939	7.41544	-5.84957	16.66008	25.9679	1.14457	0.87369	158.48801	172.18315	58.84792	0.34659	 	4.551652911E7	 	1.30086E-7	 	30448.60781	49.65871	 
935.0	1.0	0.0	8.55279	7.41249	-5.88702	16.59927	26.04841	1.13633	0.88002	159.11324	172.6132	59.08979	0.34637	 	5.086244752E7	 	1.15934E-7	 	30202.00205	49.32115	 
930.0	1.0	0.0	8.55614	7.40958	-5.92392	16.54003	26.12785	1.12819	0.88638	159.733	173.0369	59.32968	0.34615	 	5.688938915E7	 	1.03223E-7	 	29957.0676	48.98689	 
925.0	1.0	0.0	8.55945	7.40672	-5.96028	16.48235	26.2062	1.12014	0.89274	160.34741	173.45441	59.56763	0.34593	 	6.369076074E7	 	9.18167E-8	 	29713.78692	48.65614	 
920.0	1.0	0.0	8.56271	7.4039	-5.99611	16.42619	26.28348	1.11219	0.89913	160.95659	173.86587	59.80368	0.34571	 	7.137367939E7	 	8.15913E-8	 	29472.14133	48.32912	 
915.0	1.0	0.0	8.56593	7.40112	-6.03143	16.37153	26.35969	1.10433	0.90553	161.56065	174.27143	60.03787	0.34549	 	8.006111565E7	 	7.2433E-8	 	29232.11099	48.00607	 
910.0	1.0	0.0	8.56911	7.39837	-6.06626	16.31834	26.43482	1.09655	0.91195	162.1597	174.67123	60.27025	0.34527	 	8.98943912E7	 	6.42383E-8	 	28993.67486	47.68723	 
905.0	1.0	0.0	8.57224	7.39567	-6.1006	16.26659	26.50889	1.08887	0.91839	162.75384	175.06541	60.50085	0.34505	 	1.010360937E8	 	5.69129E-8	 	28756.81065	47.37284	 
900.0	1.0	0.0	8.57533	7.393	-6.13446	16.21626	26.58191	1.08127	0.92484	163.34318	175.45409	60.7297	0.34484	 	1.136734827E8	 	5.03711E-8	 	28521.49487	47.06316	 
895.0	1.0	0.0	8.57839	7.39037	-6.16786	16.16731	26.65389	1.07375	0.93131	163.92781	175.83739	60.95685	0.34462	 	1.280224734E8	 	4.45348E-8	 	28287.70283	46.75841	 
890.0	1.0	0.0	8.5814	7.38778	-6.20081	16.11972	26.72484	1.06632	0.93781	164.50784	176.21545	61.18233	0.34441	 	1.443323017E8	 	3.93332E-8	 	28055.40867	46.45883	 
885.0	1.0	0.0	8.58438	7.38521	-6.23333	16.07346	26.79479	1.05896	0.94432	165.08337	176.58837	61.40618	0.34419	 	1.628909955E8	 	3.4702E-8	 	27824.58539	46.16466	 
880.0	1.0	0.0	8.58731	7.38269	-6.26542	16.02849	26.86374	1.05168	0.95086	165.65448	176.95628	61.62842	0.34398	 	1.840317944E8	 	3.0583E-8	 	27595.2049	45.8761	 
875.0	1.0	0.0	8.59022	7.38019	-6.2971	15.98478	26.93174	1.04448	0.95741	166.22128	177.31928	61.84911	0.34376	 	2.081406994E8	 	2.69233E-8	 	27367.23812	45.59336	 
870.0	1.0	0.0	8.59309	7.37773	-6.32839	15.9423	26.99879	1.03735	0.964	166.78385	177.67748	62.06826	0.34355	 	2.356653535E8	 	2.36752E-8	 	27140.65501	45.31662	 
865.0	1.0	0.0	8.59592	7.37529	-6.35928	15.90103	27.06494	1.03029	0.9706	167.34229	178.031	62.28592	0.34334	 	2.671255078E8	 	2.07956E-8	 	26915.42468	45.04607	 
860.0	1.0	0.0	8.59872	7.37289	-6.3898	15.86093	27.1302	1.02329	0.97724	167.89669	178.37993	62.50211	0.34313	 	3.031253696E8	 	1.82453E-8	 	26691.51545	44.78185	 
855.0	1.0	0.0	8.60149	7.37052	-6.41995	15.82197	27.19461	1.01637	0.9839	168.44713	178.72438	62.71687	0.34292	 	3.443681875E8	 	1.59893E-8	 	26468.89493	44.5241	 
850.0	1.0	0.0	8.60423	7.36817	-6.44975	15.78412	27.25821	1.0095	0.99059	168.99371	179.06444	62.93023	0.34271	 	3.916735037E8	 	1.39959E-8	 	26247.53016	44.27295	 
845.0	1.0	0.0	8.60644	7.36628	-6.47373	15.77213	27.16098	1.0086	0.99147	169.39145	179.26338	63.08752	0.34251	 	4.464663622E8	 	1.22236E-8	 	26084.37516	32.631	 
840.0	1.0	0.0	8.60864	7.36439	-6.49767	15.76012	27.06374	1.0077	0.99236	169.78848	179.46107	63.24459	0.34232	 	5.095234047E8	 	1.06629E-8	 	25918.04073	33.26689	 
835.0	1.0	0.0	8.61085	7.36251	-6.52159	15.74809	26.96649	1.00679	0.99325	170.1848	179.65752	63.40143	0.34212	 	5.821800118E8	 	9.29026E-9	 	25751.85612	33.23692	 
