T (C)	Fraction solid (wt)-TOTAL	Fraction liquid (wt)-LIQUID	Density (g/(cm)^3)-TOTAL	Molar volume (cm^3)-TOTAL	Volume change (%)-  	Average expansion coeff. (10e-6 1/K)-  	Thermal conductivity (W/(m*K))-TOTAL	Electrical resistivity (10e-6 Ohm*m)-TOTAL	Electrical conductivity (10e6 1/(Ohm*m))-TOTAL	Young's modulus (GPa)-TOTAL	Bulk modulus (GPa)-TOTAL	Shear modulus(GPa)-TOTAL	Poisson's ratio-TOTAL	Liquid viscosity (mPa s)-  	Total viscosity (mPa s)-  	Liquid diffusivity (10e-9 (m^2)/s)-  	Total diffusivity (10e-9 (m^2)/s)-  	Surface Tension (mN/m)-  	Enthalpy (J/mole)-TOTAL	Specific heat (J/(mole K))-TOTAL	Latent heat (J/mole)-TOTAL
1400.0	0.0	1.0	8.18107	7.75514	0.0	24.99034	28.34204	1.44634	0.6914	0.0	133.44469	0.0	0.5	9.67603	9.67603	0.84396	0.84396	1955.16613	63330.999	 	0.0
1395.0	0.0	1.0	8.1853	7.75113	-0.0517254	24.94272	28.2731	1.44553	0.69179	0.0	133.61422	0.0	0.5	9.78626	9.78626	0.83197	0.83197	1958.21501	63125.251	41.1496	0.0
1390.0	0.0	1.0	8.18953	7.74713	-0.1033	24.89516	28.20417	1.44472	0.69217	0.0	133.78374	0.0	0.5	9.89842	9.89842	0.82007	0.82007	1961.27646	62919.986	41.053	0.0
1385.66	0.0	1.0	8.19319	7.74367	-0.14795	24.85392	28.14433	1.44401	0.69251	0.0	133.93092	0.0	0.5	9.99739	9.99739	0.80984	0.80984	1963.94459	62742.184	40.96103	0.0
1385.0	0.03295	0.96705	8.20089	7.73641	-0.24162	24.61271	28.25647	1.43771	0.69555	1.4282E-4	134.42183	4.77589E-5	0.49522	10.02915	10.52399	0.80695	0.76901	1965.03004	62149.738	898.6803	565.462
1380.0	0.25839	0.74161	8.25315	7.68744	-0.87303	22.99013	29.04326	1.39455	0.71708	0.5541	137.59628	0.18949	0.46208	10.27823	186.54983	0.78502	0.0432518	1973.22951	58099.92	809.9636	4410.974
1375.0	0.41833	0.58167	8.29067	7.65261	-1.32216	21.85199	29.6208	1.36322	0.73356	3.88135	139.79437	1.34941	0.43816	10.53646	1270.93702	0.76346	0.00632935	1981.32789	55189.216	582.1408	7117.846
1370.0	0.53484	0.46516	8.31843	7.62699	-1.6525	21.03015	30.05166	1.3396	0.74649	10.52055	141.37405	3.70315	0.42049	10.80364	3569.69768	0.74232	0.00224663	1989.29839	53032.68	431.3072	9071.021
1365.0	0.62166	0.37834	8.33953	7.60756	-1.90301	20.42121	30.37297	1.32139	0.75678	19.42103	142.55192	6.90084	0.40715	11.07979	6895.34686	0.72162	0.00115954	1997.12089	51388.773	328.7814	10512.038
1360.0	0.68767	0.31233	8.356	7.59244	-2.09806	19.96049	30.61063	1.30713	0.76503	29.34513	143.4624	10.5037	0.3969	11.36481	10948.89371	0.70138	7.28019E-4	2004.7794	50101.756	257.4034	11596.634
1355.0	0.73877	0.26123	8.36918	7.5803	-2.25454	19.60292	30.78393	1.2958	0.77173	39.38037	144.19011	14.1771	0.38887	11.65874	15482.01458	0.6816	5.13279E-4	2012.26773	49068.681	206.615	12427.751
1352.66	0.75813	0.24187	8.37438	7.57552	-2.31616	19.46676	30.84445	1.2914	0.77435	43.80609	144.48252	15.80522	0.38581	11.79891	17662.27243	0.67254	4.49274E-4	2015.71854	48661.606	 	12740.64
1350.0	0.79105	0.20895	8.38303	7.56777	-2.41616	19.22839	30.95902	1.28451	0.77851	51.89147	144.93161	18.79096	0.38076	11.84277	21466.63541	0.66895	3.69047E-4	2014.13717	48014.379	210.8604	13280.558
1345.0	0.84057	0.15943	8.39652	7.55579	-2.57055	18.87115	31.11833	1.274	0.78493	66.22587	145.54954	24.11643	0.37304	11.9372	28844.27126	0.66161	2.73808E-4	2011.12582	47006.617	201.5524	14087.283
1340.0	0.87574	0.12426	8.40691	7.54667	-2.68825	18.6138	31.21046	1.26631	0.78969	78.22187	145.99313	28.60108	0.36746	12.04428	35992.54673	0.6537	2.1875E-4	2008.17036	46237.587	153.806	14655.735
1335.0	0.90126	0.0987355	8.41525	7.53945	-2.78129	18.4237	31.25595	1.26055	0.7933	87.99876	146.3399	32.27322	0.36334	12.16285	42876.49103	0.64532	1.8306E-4	2005.30824	45628.424	121.8326	15064.773
1330.0	0.92017	0.0798263	8.42217	7.53354	-2.85754	18.27944	31.26886	1.25611	0.79611	95.90249	146.63303	35.25238	0.36023	12.29174	49560.08701	0.63657	1.57881E-4	2002.56779	45128.281	100.0286	15365.248
1325.0	0.93446	0.0655356	8.42811	7.52852	-2.92227	18.16666	31.25872	1.2526	0.79834	102.30606	146.8965	37.67281	0.35782	12.42997	56140.65182	0.62753	1.3894E-4	1999.96817	44703.943	84.8676	15590.364
1320.0	0.94547	0.0545252	8.43334	7.52413	-2.97891	18.076	31.23202	1.24975	0.80016	107.53133	147.14382	39.65228	0.35593	12.57667	62717.25767	0.61827	1.23981E-4	1997.52086	44333.382	74.1122	15762.152
1315.0	0.95411	0.0458904	8.43808	7.52019	-3.02967	18.00138	31.19323	1.24738	0.80168	111.83864	147.38286	41.28699	0.35441	12.731	69382.95078	0.60886	1.11719E-4	1995.22865	44001.735	66.3294	15895.471
1310.0	0.96099	0.0390061	8.44244	7.51659	-3.07605	17.9387	31.14549	1.24535	0.80298	115.43059	147.61773	42.65231	0.35316	12.89225	76221.74776	0.59935	1.01375E-4	1993.08925	43698.793	60.5884	16000.529
1305.0	0.96656	0.0334354	8.44651	7.51324	-3.11926	17.88465	31.091	1.2436	0.80412	118.46293	147.85053	43.80645	0.35212	13.05999	83309.72685	0.58978	9.24569E-5	1991.10319	43417.418	56.275	16084.459
1300.0	0.97113	0.0288662	8.45037	7.51009	-3.15994	17.83746	31.03139	1.24204	0.80513	121.05304	148.08322	44.79342	0.35124	13.23372	90716.35112	0.5802	8.46391E-5	1989.2597	43152.533	52.977	16152.339
1295.0	0.97493	0.0250703	8.45405	7.50707	-3.19879	17.7952	30.9678	1.24063	0.80604	123.29173	148.31589	45.64738	0.35048	13.41305	98506.90359	0.57062	7.76976E-5	1987.55933	42900.463	50.414	16207.84
1290.0	0.97812	0.0218827	8.45761	7.50418	-3.23612	17.75705	30.90111	1.23935	0.80688	125.24839	148.54913	46.39446	0.34982	13.59775	106745.0533	0.56107	7.14726E-5	1985.98947	42658.505	48.3916	16253.661
1285.0	0.98082	0.0191771	8.46105	7.50138	-3.27224	17.7221	30.83196	1.23815	0.80765	126.97595	148.78292	47.05464	0.34924	13.78742	115492.6436	0.55159	6.58479E-5	1984.54364	42424.644	46.7722	16291.819
1280.0	0.98314	0.0168605	8.46441	7.49865	-3.30739	17.68972	30.76085	1.23703	0.80839	128.51686	149.01738	47.64398	0.34872	13.98197	124813.2432	0.54217	6.07351E-5	1983.21437	42197.353	45.4582	16323.836
1275.0	0.98514	0.0148594	8.4677	7.49598	-3.34178	17.65931	30.68815	1.23597	0.80908	129.90352	149.25242	48.17474	0.34825	14.18138	134771.2438	0.53282	5.60664E-5	1981.99929	41975.461	44.3784	16350.881
1270.0	0.98688	0.0131167	8.47092	7.49337	-3.37548	17.63071	30.61416	1.23496	0.80974	131.16202	149.48772	48.65679	0.34783	14.38531	145435.0159	0.52357	5.17876E-5	1980.88199	41758.058	43.4806	16373.863
1265.28	0.98833	0.0116701	8.47392	7.49094	-3.40681	17.60492	30.54335	1.23403	0.81035	132.25045	149.7101	49.07398	0.34746	14.582	156210.0437	0.51493	4.8068E-5	1979.91976	41556.353	 	16392.458
1265.0	0.98862	0.0113768	8.47414	7.49076	-3.4091	17.60213	30.53907	1.23398	0.81038	132.43121	149.72327	49.1432	0.3474	14.59276	157017.2379	0.51446	4.78121E-5	1980.02233	41540.492	43.5132	16397.43
1262.85	0.99083	0.00916631	8.47582	7.48942	-3.42641	17.5812	30.50606	1.23359	0.81064	133.79828	149.8235	49.66688	0.34696	14.67459	163308.9125	0.51087	4.5906E-5	1980.83198	41420.032	 	16434.752
1262.85	0.99083	0.00916631	8.47582	7.48942	-3.42642	17.5812	30.50606	1.23359	0.81064	133.79828	149.8235	49.66688	0.34696	14.67459	163308.9354	0.51087	4.5906E-5	1980.832	41420.031	 	16434.753
1260.0	1.0	0.0	8.47925	7.4868	-3.46024	17.52113	30.45102	1.23353	0.81068	139.37921	150.15057	51.80268	0.34529	 	176762.129	 	4.23333E-5	 	41147.119	78.6746	16597.225
1255.0	1.0	0.0	8.4821	7.48425	-3.49303	17.49432	30.37103	1.23274	0.8112	139.73079	150.39363	51.93874	0.34515	 	189650.3196	 	3.93278E-5	 	40971.40055	35.14369	 
1250.0	1.0	0.0	8.48494	7.48176	-3.52524	17.46904	30.29113	1.23195	0.81172	140.08242	150.63786	52.07479	0.34501	 	203577.6231	 	3.65174E-5	 	40787.20498	36.83911	 
1245.0	1.0	0.0	8.48776	7.47926	-3.55738	17.44377	30.21123	1.23115	0.81225	140.43341	150.88098	52.21062	0.34487	 	218629.7225	 	3.38916E-5	 	40603.33182	36.77463	 
1240.0	1.0	0.0	8.49059	7.47678	-3.58945	17.4185	30.13133	1.23035	0.81277	140.78376	151.12301	52.34624	0.34474	 	234905.4541	 	3.14395E-5	 	40419.78039	36.71029	 
1235.0	1.0	0.0	8.49341	7.4743	-3.62145	17.39324	30.05142	1.22955	0.81331	141.13347	151.36395	52.48166	0.3446	 	252513.0146	 	2.91506E-5	 	40236.55002	36.64607	 
1230.0	1.0	0.0	8.49622	7.47182	-3.65338	17.36798	29.97152	1.22874	0.81384	141.48253	151.60379	52.61685	0.34446	 	271570.915	 	2.7015E-5	 	40053.64005	36.582	 
1225.0	1.0	0.0	8.49903	7.46935	-3.68524	17.34272	29.89161	1.22793	0.81438	141.83096	151.84254	52.75184	0.34432	 	292209.0469	 	2.50235E-5	 	39871.0498	36.51805	 
1220.0	1.0	0.0	8.50184	7.46688	-3.71703	17.31746	29.8117	1.22711	0.81492	142.17874	152.08021	52.88662	0.34418	 	314569.855	 	2.31672E-5	 	39688.77861	36.45424	 
1215.0	1.0	0.0	8.50464	7.46442	-3.74875	17.29221	29.73179	1.22629	0.81547	142.52588	152.3168	53.02118	0.34405	 	338809.6226	 	2.14377E-5	 	39506.82582	36.39056	 
1210.0	1.0	0.0	8.50744	7.46197	-3.78041	17.26696	29.65188	1.22546	0.81602	142.87237	152.5523	53.15553	0.34391	 	365099.9102	 	1.98271E-5	 	39325.19076	36.32701	 
1205.0	1.0	0.0	8.51023	7.45952	-3.81199	17.24172	29.57196	1.22463	0.81657	143.21823	152.78673	53.28967	0.34377	 	393629.1821	 	1.83281E-5	 	39143.87276	36.2636	 
1200.0	1.0	0.0	8.51302	7.45708	-3.8435	17.21648	29.49204	1.22379	0.81713	143.56344	153.02008	53.42359	0.34363	 	424604.5629	 	1.69336E-5	 	38962.87116	36.20032	 
1195.0	1.0	0.0	8.5158	7.45464	-3.87494	17.19124	29.41213	1.22295	0.81769	143.90801	153.25237	53.55731	0.3435	 	458253.8259	 	1.56369E-5	 	38782.1853	36.13717	 
1190.0	1.0	0.0	8.51858	7.4522	-3.90631	17.166	29.3322	1.22211	0.81826	144.25194	153.48358	53.69081	0.34336	 	494827.5858	 	1.44318E-5	 	38601.81452	36.07416	 
1185.0	1.0	0.0	8.52136	7.44978	-3.93762	17.14077	29.25228	1.22126	0.81883	144.59523	153.71373	53.8241	0.34322	 	534601.7988	 	1.33125E-5	 	38421.75815	36.01127	 
1180.0	1.0	0.0	8.52413	7.44735	-3.96885	17.11554	29.17236	1.22041	0.8194	144.93787	153.94282	53.95717	0.34308	 	577880.4183	 	1.22732E-5	 	38242.01554	35.94852	 
1175.0	1.0	0.0	8.5269	7.44494	-4.00001	17.09032	29.09243	1.21955	0.81997	145.27988	154.17085	54.09004	0.34294	 	624998.5432	 	1.13089E-5	 	38062.58602	35.8859	 
1170.0	1.0	0.0	8.52966	7.44253	-4.03111	17.0651	29.0125	1.21869	0.82055	145.62124	154.39782	54.22269	0.34281	 	676325.7166	 	1.04146E-5	 	37883.46893	35.82342	 
1165.0	1.0	0.0	8.53242	7.44012	-4.06213	17.03988	28.93257	1.21782	0.82114	145.96196	154.62374	54.35512	0.34267	 	732269.8241	 	9.58561E-6	 	37704.66361	35.76106	 
1160.0	1.0	0.0	8.53517	7.43772	-4.09308	17.01467	28.85263	1.21695	0.82173	146.30203	154.84861	54.48735	0.34253	 	793281.2858	 	8.81762E-6	 	37526.16941	35.69884	 
1155.0	1.0	0.0	8.53792	7.43532	-4.12397	16.98946	28.7727	1.21607	0.82232	146.64147	155.07243	54.61936	0.34239	 	859857.8392	 	8.10651E-6	 	37347.98566	35.63675	 
1150.0	1.0	0.0	8.54067	7.43293	-4.15478	16.96425	28.69276	1.21519	0.82292	146.98026	155.2952	54.75116	0.34226	 	932549.7714	 	7.44844E-6	 	37170.1117	35.57479	 
1145.0	1.0	0.0	8.54341	7.43055	-4.18553	16.93905	28.61282	1.2143	0.82352	147.31841	155.51694	54.88274	0.34212	 	1011965.986	 	6.83979E-6	 	36992.54688	35.51296	 
1140.0	1.0	0.0	8.54614	7.42817	-4.2162	16.91385	28.53287	1.21341	0.82412	147.65592	155.73763	55.01411	0.34198	 	1098780.592	 	6.27717E-6	 	36815.29054	35.45127	 
1135.0	1.0	0.0	8.54888	7.4258	-4.24681	16.88865	28.45293	1.21252	0.82473	147.99279	155.95729	55.14527	0.34184	 	1193740.389	 	5.75739E-6	 	36638.34202	35.3897	 
1130.0	1.0	0.0	8.5516	7.42343	-4.27735	16.86346	28.37298	1.21162	0.82534	148.32902	156.17591	55.27622	0.34171	 	1297673.255	 	5.27747E-6	 	36461.70066	35.32827	 
1125.0	1.0	0.0	8.55433	7.42107	-4.30781	16.83827	28.29303	1.21071	0.82596	148.6646	156.39351	55.40695	0.34157	 	1411497.555	 	4.8346E-6	 	36285.3658	35.26697	 
1120.0	1.0	0.0	8.55704	7.41871	-4.33821	16.81308	28.21308	1.2098	0.82658	148.99954	156.61007	55.53747	0.34143	 	1536232.713	 	4.42616E-6	 	36109.3368	35.2058	 
1115.0	1.0	0.0	8.55976	7.41636	-4.36854	16.7879	28.13312	1.20888	0.82721	149.33384	156.82561	55.66777	0.3413	 	1673011.099	 	4.04971E-6	 	35933.61299	35.14476	 
1110.0	1.0	0.0	8.56247	7.41401	-4.3988	16.76272	28.05316	1.20796	0.82784	149.6675	157.04013	55.79787	0.34116	 	1823091.402	 	3.70295E-6	 	35758.19373	35.08385	 
1105.0	1.0	0.0	8.56517	7.41167	-4.42899	16.73754	27.9732	1.20704	0.82848	150.00051	157.25363	55.92774	0.34102	 	1987873.691	 	3.38372E-6	 	35583.07834	35.02308	 
1100.0	1.0	0.0	8.56787	7.40933	-4.45911	16.71237	27.89324	1.20611	0.82912	150.33289	157.46611	56.05741	0.34088	 	2168916.382	 	3.09002E-6	 	35408.26618	34.96243	 
1095.0	1.0	0.0	8.57057	7.407	-4.48916	16.6872	27.81327	1.20517	0.82976	150.66462	157.67758	56.18686	0.34075	 	2367955.368	 	2.81999E-6	 	35233.75659	34.90192	 
1090.0	1.0	0.0	8.57326	7.40468	-4.51914	16.66203	27.7333	1.20423	0.83041	150.99571	157.88804	56.31609	0.34061	 	2586925.613	 	2.57185E-6	 	35059.54893	34.84153	 
1085.0	1.0	0.0	8.57594	7.40236	-4.54905	16.63687	27.65333	1.20328	0.83106	151.32616	158.09748	56.44512	0.34047	 	2827985.533	 	2.344E-6	 	34885.64253	34.78128	 
1080.0	1.0	0.0	8.57863	7.40004	-4.57889	16.61171	27.57335	1.20233	0.83172	151.65597	158.30592	56.57392	0.34033	 	3093544.556	 	2.13489E-6	 	34712.03673	34.72116	 
1075.0	1.0	0.0	8.5813	7.39774	-4.60866	16.58656	27.49337	1.20137	0.83238	151.98513	158.51336	56.70252	0.3402	 	3386294.291	 	1.94312E-6	 	34538.73089	34.66117	 
1070.0	1.0	0.0	8.58398	7.39543	-4.63837	16.5614	27.41339	1.20041	0.83305	152.31365	158.7198	56.8309	0.34006	 	3709243.817	 	1.76736E-6	 	34365.72437	34.60131	 
1065.0	1.0	0.0	8.58665	7.39313	-4.668	16.53625	27.33341	1.19944	0.83373	152.64153	158.92523	56.95906	0.33992	 	4065759.65	 	1.60639E-6	 	34193.01648	34.54158	 
1060.0	1.0	0.0	8.58931	7.39084	-4.69757	16.51111	27.25342	1.19846	0.8344	152.96877	159.12968	57.08701	0.33979	 	4459611.073	 	1.45905E-6	 	34020.6066	34.48198	 
1055.0	1.0	0.0	8.59197	7.38855	-4.72706	16.48597	27.17343	1.19748	0.83509	153.29537	159.33313	57.21475	0.33965	 	4895021.556	 	1.32428E-6	 	33848.49406	34.42251	 
1053.85	1.0	0.0	8.59258	7.38803	-4.73383	16.48019	27.15504	1.19726	0.83524	153.37037	159.37977	57.24409	0.33962	 	5001496.299	 	1.29496E-6	 	33808.96254	 	 
1050.0	1.0	0.0	8.59461	7.38629	-4.75631	16.46146	27.09344	1.1965	0.83577	153.6221	159.53679	57.34255	0.33951	 	5376987.7	 	1.20104E-6	 	33676.34399	34.43001	 
1045.0	1.0	0.0	8.59724	7.38403	-4.78545	16.4371	27.01345	1.1955	0.83647	153.94838	159.73976	57.4702	0.33938	 	5910685.276	 	1.08846E-6	 	33504.41056	34.38669	 
1040.0	1.0	0.0	8.59986	7.38177	-4.81453	16.41272	26.93345	1.19451	0.83717	154.27398	159.94166	57.59761	0.33924	 	6502018.351	 	9.85718E-7	 	33332.7938	34.32335	 
1035.0	1.0	0.0	8.60249	7.37952	-4.84356	16.3883	26.85346	1.1935	0.83787	154.59889	160.14251	57.7248	0.3391	 	7157704.492	 	8.92012E-7	 	33161.49215	34.26033	 
1030.0	1.0	0.0	8.60511	7.37727	-4.87252	16.36386	26.77346	1.19249	0.83858	154.92311	160.34231	57.85176	0.33897	 	7885300.375	 	8.06609E-7	 	32990.50408	34.19761	 
1025.0	1.0	0.0	8.60772	7.37503	-4.90143	16.3394	26.69346	1.19148	0.83929	155.24665	160.54107	57.97849	0.33883	 	8693313.962	 	7.2883E-7	 	32819.82807	34.1352	 
1020.0	1.0	0.0	8.61033	7.37279	-4.93028	16.31491	26.61345	1.19046	0.84001	155.56951	160.73879	58.10499	0.33869	 	9591331.952	 	6.58047E-7	 	32649.46264	34.07309	 
1015.0	1.0	0.0	8.61294	7.37056	-4.95906	16.29039	26.53344	1.18943	0.84074	155.8917	160.93548	58.23126	0.33856	 	1.059016647E7	 	5.93677E-7	 	32479.40634	34.01126	 
1010.0	1.0	0.0	8.61555	7.36833	-4.98779	16.26585	26.45343	1.1884	0.84147	156.2132	161.13114	58.35731	0.33842	 	1.17020208E7	 	5.35184E-7	 	32309.65774	33.94972	 
1005.0	1.0	0.0	8.61815	7.36611	-5.01645	16.24129	26.37341	1.18736	0.84221	156.53403	161.32578	58.48313	0.33828	 	1.294068125E7	 	4.82071E-7	 	32140.21545	33.88846	 
1000.0	1.0	0.0	8.62074	7.36389	-5.04506	16.21671	26.29339	1.18631	0.84295	156.85418	161.5194	58.60872	0.33815	 	1.432173487E7	 	4.33881E-7	 	31971.0781	33.82747	 
995.0	1.0	0.0	8.62333	7.36168	-5.0736	16.19211	26.21337	1.18526	0.8437	157.17366	161.712	58.73408	0.33801	 	1.586282166E7	 	3.90191E-7	 	31802.24436	33.76675	 
990.0	1.0	0.0	8.62592	7.35947	-5.10208	16.16749	26.13335	1.1842	0.84445	157.49247	161.9036	58.85922	0.33787	 	1.75839215E7	 	3.50611E-7	 	31633.71288	33.7063	 
985.0	1.0	0.0	8.62851	7.35727	-5.13049	16.14286	26.05332	1.18314	0.84521	157.81061	162.0942	58.98413	0.33774	 	1.950768526E7	 	3.14785E-7	 	31465.48238	33.6461	 
980.0	1.0	0.0	8.63109	7.35507	-5.15885	16.1182	25.97328	1.18207	0.84598	158.12808	162.2838	59.10882	0.3376	 	2.165981395E7	 	2.82381E-7	 	31297.55159	33.58616	 
975.0	1.0	0.0	8.63366	7.35287	-5.18714	16.09354	25.89324	1.18099	0.84675	158.44488	162.4724	59.23329	0.33746	 	2.406949995E7	 	2.53097E-7	 	31129.91928	33.52646	 
970.0	1.0	0.0	8.63623	7.35068	-5.21537	16.06885	25.8132	1.17991	0.84752	158.76101	162.66002	59.35753	0.33733	 	2.67699263E7	 	2.26654E-7	 	30962.5842	33.46701	 
965.0	1.0	0.0	8.6388	7.3485	-5.24353	16.04416	25.73316	1.17882	0.84831	159.07647	162.84665	59.48154	0.33719	 	2.979885387E7	 	2.02796E-7	 	30795.54517	33.40781	 
960.0	1.0	0.0	8.64136	7.34632	-5.27163	16.01945	25.65311	1.17772	0.8491	159.39128	163.0323	59.60533	0.33706	 	3.31992884E7	 	1.8129E-7	 	30628.80101	33.34883	 
955.0	1.0	0.0	8.64392	7.34415	-5.29967	15.99472	25.57305	1.17662	0.84989	159.70541	163.21698	59.7289	0.33692	 	3.702026047E7	 	1.61919E-7	 	30462.35055	33.29009	 
950.0	1.0	0.0	8.64647	7.34198	-5.32764	15.96999	25.49299	1.17551	0.8507	160.01889	163.40068	59.85224	0.33678	 	4.131771889E7	 	1.44487E-7	 	30296.19266	33.23158	 
945.0	1.0	0.0	8.64902	7.33981	-5.35555	15.94524	25.41293	1.17439	0.85151	160.3317	163.58341	59.97536	0.33665	 	4.615557772E7	 	1.28814E-7	 	30130.32623	33.17329	 
940.0	1.0	0.0	8.65157	7.33765	-5.38339	15.92049	25.33286	1.17327	0.85232	160.64386	163.76518	60.09826	0.33651	 	5.160691161E7	 	1.14734E-7	 	29964.75016	33.11521	 
935.0	1.0	0.0	8.65411	7.3355	-5.41117	15.89573	25.25279	1.17213	0.85314	160.95535	163.94599	60.22094	0.33637	 	5.775536665E7	 	1.02098E-7	 	29799.46337	33.05736	 
930.0	1.0	0.0	8.65665	7.33335	-5.43888	15.87095	25.17271	1.171	0.85397	161.26618	164.12585	60.34339	0.33624	 	6.469677457E7	 	9.07661E-8	 	29634.46481	32.99971	 
925.0	1.0	0.0	8.65918	7.33121	-5.46653	15.84617	25.09263	1.16985	0.85481	161.57636	164.30475	60.46563	0.3361	 	7.254104837E7	 	8.06147E-8	 	29469.75344	32.94227	 
920.0	1.0	0.0	8.6617	7.32907	-5.49411	15.82138	25.01254	1.1687	0.85565	161.88588	164.4827	60.58764	0.33596	 	8.141438445E7	 	7.15287E-8	 	29305.32823	32.88504	 
915.0	1.0	0.0	8.66423	7.32693	-5.52163	15.79659	24.93245	1.16754	0.8565	162.19474	164.65971	60.70942	0.33583	 	9.146182314E7	 	6.34042E-8	 	29141.18817	32.82801	 
910.0	1.0	0.0	8.66675	7.32481	-5.54908	15.77179	24.85236	1.16638	0.85736	162.50295	164.83578	60.83099	0.33569	 	1.028502414E8	 	5.61463E-8	 	28977.33228	32.77118	 
905.0	1.0	0.0	8.66926	7.32268	-5.57646	15.74698	24.77226	1.1652	0.85822	162.8105	165.01091	60.95234	0.33556	 	1.157718567E8	 	4.96689E-8	 	28813.75957	32.71454	 
900.0	1.0	0.0	8.67177	7.32056	-5.60378	15.72217	24.69215	1.16402	0.85909	163.1174	165.1851	61.07346	0.33542	 	1.30448306E8	 	4.38937E-8	 	28650.4691	32.65809	 
895.0	1.0	0.0	8.67427	7.31845	-5.63103	15.69735	24.61204	1.16283	0.85997	163.42364	165.35837	61.19437	0.33528	 	1.471354414E8	 	3.87497E-8	 	28487.4599	32.60184	 
890.0	1.0	0.0	8.67677	7.31634	-5.65821	15.67253	24.53192	1.16164	0.86085	163.72923	165.53071	61.31505	0.33515	 	1.661289429E8	 	3.41725E-8	 	28324.73106	32.54577	 
885.0	1.0	0.0	8.67927	7.31424	-5.68533	15.64771	24.4518	1.16043	0.86175	164.03417	165.70212	61.43551	0.33501	 	1.877708948E8	 	3.01039E-8	 	28162.28166	32.48988	 
880.0	1.0	0.0	8.68176	7.31214	-5.71238	15.62288	24.37167	1.15922	0.86265	164.33846	165.87261	61.55576	0.33487	 	2.124575531E8	 	2.64911E-8	 	28000.11078	32.43417	 
875.0	1.0	0.0	8.68424	7.31005	-5.73937	15.59805	24.29154	1.158	0.86356	164.64209	166.04218	61.67578	0.33474	 	2.406484325E8	 	2.32864E-8	 	27838.21754	32.37865	 
870.0	1.0	0.0	8.68672	7.30796	-5.76629	15.57321	24.2114	1.15678	0.86447	164.94508	166.21084	61.79558	0.3346	 	2.728770427E8	 	2.04467E-8	 	27676.60105	32.3233	 
