T (C)	Fraction solid (wt)-TOTAL	Fraction liquid (wt)-LIQUID	Density (g/(cm)^3)-TOTAL	Molar volume (cm^3)-TOTAL	Volume change (%)-  	Average expansion coeff. (10e-6 1/K)-  	Thermal conductivity (W/(m*K))-TOTAL	Electrical resistivity (10e-6 Ohm*m)-TOTAL	Electrical conductivity (10e6 1/(Ohm*m))-TOTAL	Young's modulus (GPa)-TOTAL	Bulk modulus (GPa)-TOTAL	Shear modulus(GPa)-TOTAL	Poisson's ratio-TOTAL	Liquid viscosity (mPa s)-  	Total viscosity (mPa s)-  	Liquid diffusivity (10e-9 (m^2)/s)-  	Total diffusivity (10e-9 (m^2)/s)-  	Surface Tension (mN/m)-  	Enthalpy (J/mole)-TOTAL	Specific heat (J/(mole K))-TOTAL	Latent heat (J/mole)-TOTAL
1400.0	0.42438	0.57562	7.53625	7.49501	0.0	23.7194	33.60445	1.21984	0.81978	2.96824	125.41185	1.02799	0.44372	6.94159	874.33078	1.17642	0.00933998	1786.91491	47687.696	 	0.0
1395.0	0.56189	0.43811	7.57377	7.4579	-0.49513	22.48339	34.05286	1.20018	0.83321	9.33917	124.96317	3.27687	0.42502	6.99454	2829.10983	1.16403	0.00287788	1786.13108	45419.348	453.6696	2058.901
1390.0	0.66057	0.33943	7.6016	7.43061	-0.85921	21.58967	34.36414	1.18575	0.84335	18.16688	124.75396	6.43571	0.41141	7.04835	5729.07555	1.15168	0.00141688	1785.35941	43759.774	331.9148	3509.555
1385.0	0.73351	0.26649	7.62295	7.40983	-1.13658	20.92271	34.57919	1.17483	0.85119	28.03352	124.70899	10.00318	0.40123	7.1031	9250.3299	1.13936	8.7489E-4	1784.60052	42499.367	252.0814	4561.562
1380.0	0.78873	0.21127	7.6398	7.39351	-1.35423	20.41211	34.72476	1.16638	0.85736	37.94674	124.78001	13.61629	0.39343	7.15896	13142.49001	1.12707	6.13933E-4	1783.85464	41510.381	197.7972	5342.666
1375.0	0.83138	0.16862	7.65345	7.38037	-1.52952	20.01253	34.81967	1.15968	0.86231	47.34539	124.93508	17.06337	0.38734	7.21593	17248.17261	1.11478	4.6638E-4	1783.12181	40711.67	159.7422	5934.01
1370.0	0.86486	0.13514	7.66474	7.36954	-1.67403	19.69377	34.87692	1.15426	0.86635	55.96911	125.15199	20.24203	0.3825	7.27411	21482.22192	1.10251	3.73323E-4	1782.402	40049.855	132.363	6388.97
1365.0	0.89149	0.10851	7.67427	7.36043	-1.79559	19.43527	34.90563	1.14981	0.86971	63.72827	125.41521	23.11353	0.37859	7.33359	25803.67538	1.09024	3.09855E-4	1781.69528	39488.758	112.2194	6743.719
1360.0	0.91294	0.0870563	7.68245	7.35263	-1.89964	19.22285	34.91248	1.14607	0.87255	70.63034	125.71374	25.67622	0.3754	7.39446	30200.48026	1.07797	2.63936E-4	1781.00187	39003.222	97.1072	7023.413
1355.0	0.93039	0.0696071	7.68961	7.34584	-1.99032	19.0456	34.90245	1.14289	0.87497	76.73582	126.03909	27.94932	0.37277	7.45671	34679.80002	1.0657	2.29142E-4	1780.32233	38575.347	85.575	7245.949
1350.0	0.94471	0.0552906	7.69595	7.33983	-2.07051	18.896	34.87916	1.14014	0.87708	82.12015	126.38528	29.9585	0.37056	7.52044	39257.11773	1.05342	2.01803E-4	1779.65755	38192.143	76.6408	7424.312
1345.0	0.95654	0.0434567	7.70165	7.33444	-2.14236	18.76836	34.84532	1.13773	0.87894	86.86457	126.74763	31.73232	0.36871	7.58573	43954.25468	1.04114	1.79682E-4	1779.0088	37844.011	69.6264	7568.099
1340.0	0.96639	0.0336149	7.70683	7.32956	-2.20754	18.65835	34.80304	1.1356	0.8806	91.04685	127.12251	33.29855	0.36713	7.65259	48796.16209	1.02885	1.61353E-4	1778.37777	37523.743	64.0536	7684.515
1335.0	0.97461	0.0253856	7.7116	7.32507	-2.26736	18.56247	34.75393	1.13368	0.88209	94.73946	127.50719	34.6834	0.36578	7.72112	53810.46793	1.01656	1.45863E-4	1777.76672	37225.846	59.5794	7779.05
1330.0	0.98153	0.0184744	7.71602	7.32092	-2.32278	18.47819	34.69929	1.13193	0.88345	98.00672	127.89951	35.91026	0.36461	7.79131	59026.34159	1.00427	1.32561E-4	1777.17813	36946.079	55.9534	7855.942
1325.0	0.98735	0.0126487	7.72016	7.31704	-2.37455	18.40351	34.64009	1.13033	0.8847	100.90467	128.29778	36.99966	0.36359	7.86329	64473.91157	0.99197	1.20982E-4	1776.61487	36681.127	52.9904	7918.503
1320.0	0.99228	0.00772252	7.72408	7.31338	-2.42335	18.33668	34.57713	1.12884	0.88586	103.48297	128.70053	37.96987	0.3627	7.93705	70185.02083	0.97968	1.1079E-4	1776.08022	36428.369	50.5516	7969.35
1315.0	0.99645	0.00354741	7.72779	7.30991	-2.46964	18.27641	34.51106	1.12746	0.88695	105.78487	129.10668	38.83686	0.36191	8.01265	76193.21929	0.96739	1.01733E-4	1775.57746	36185.714	48.531	8010.575
1310.0	1.0	0.0	7.73135	7.3066	-2.51385	18.22162	34.44239	1.12615	0.88798	107.84739	129.51528	39.61434	0.36122	 	82533.43705	 	9.36222E-5	 	35951.479	46.847	8043.853
1305.0	1.0	0.0	7.73382	7.30427	-2.54492	18.20397	34.35582	1.12542	0.88856	108.33816	129.93209	39.79999	0.36103	 	88145.32232	 	8.73848E-5	 	35733.11854	43.67209	 
1300.0	1.0	0.0	7.73628	7.30195	-2.57594	18.18635	34.26925	1.12469	0.88914	108.82819	130.34702	39.98543	0.36085	 	94178.17135	 	8.1528E-5	 	35542.21759	38.18019	 
1295.0	1.0	0.0	7.73874	7.29962	-2.60691	18.16871	34.18268	1.12395	0.88972	109.31745	130.75997	40.17063	0.36066	 	100666.4098	 	7.60308E-5	 	35351.61281	38.12096	 
1290.0	1.0	0.0	7.7412	7.29731	-2.63784	18.15104	34.09611	1.12321	0.8903	109.80596	131.17095	40.3556	0.36048	 	107647.5152	 	7.08734E-5	 	35161.30382	38.0618	 
1285.0	1.0	0.0	7.74365	7.29499	-2.66873	18.13335	34.00954	1.12247	0.89089	110.2937	131.57998	40.54034	0.3603	 	115162.2983	 	6.60367E-5	 	34971.29027	38.00271	 
1280.0	1.0	0.0	7.74611	7.29268	-2.69958	18.11565	33.92297	1.12172	0.89149	110.78068	131.98706	40.72485	0.36011	 	123255.2216	 	6.15028E-5	 	34781.57179	37.9437	 
1275.0	1.0	0.0	7.74856	7.29037	-2.73038	18.09792	33.83641	1.12097	0.89208	111.26689	132.39219	40.90912	0.35993	 	131974.75	 	5.72544E-5	 	34592.14799	37.88476	 
1270.0	1.0	0.0	7.75101	7.28806	-2.76115	18.08017	33.74984	1.12022	0.89268	111.75235	132.7954	41.09317	0.35974	 	141373.7373	 	5.32753E-5	 	34403.01854	37.82589	 
1265.0	1.0	0.0	7.75346	7.28576	-2.79188	18.06239	33.66327	1.11946	0.89329	112.23704	133.19667	41.27698	0.35956	 	151509.8525	 	4.95501E-5	 	34214.18306	37.7671	 
1260.0	1.0	0.0	7.75591	7.28346	-2.82256	18.0446	33.5767	1.1187	0.8939	112.72096	133.59604	41.46056	0.35938	 	162446.0509	 	4.60641E-5	 	34025.64118	37.70838	 
1255.0	1.0	0.0	7.75836	7.28117	-2.8532	18.02679	33.49013	1.11793	0.89451	113.20413	133.99349	41.64391	0.35919	 	174251.0935	 	4.28033E-5	 	33837.39253	37.64973	 
1250.0	1.0	0.0	7.7608	7.27887	-2.8838	18.00895	33.40356	1.11716	0.89513	113.68653	134.38904	41.82702	0.35901	 	187000.1212	 	3.97546E-5	 	33649.43676	37.59115	 
1245.0	1.0	0.0	7.76325	7.27658	-2.91436	17.9911	33.31698	1.11639	0.89575	114.16817	134.78269	42.00991	0.35882	 	200775.2902	 	3.69055E-5	 	33461.7735	37.53265	 
1240.0	1.0	0.0	7.76569	7.27429	-2.94488	17.97322	33.23041	1.11561	0.89637	114.64905	135.17446	42.19256	0.35864	 	215666.4737	 	3.42441E-5	 	33274.40238	37.47422	 
1235.0	1.0	0.0	7.76813	7.27201	-2.97535	17.95532	33.14384	1.11483	0.897	115.12916	135.56435	42.37498	0.35846	 	231772.0394	 	3.17592E-5	 	33087.32303	37.41587	 
1230.0	1.0	0.0	7.77056	7.26973	-3.00579	17.9374	33.05727	1.11404	0.89763	115.60851	135.95237	42.55716	0.35827	 	249199.7101	 	2.94402E-5	 	32900.53508	37.35759	 
1225.0	1.0	0.0	7.773	7.26745	-3.03618	17.91946	32.9707	1.11325	0.89827	116.0871	136.33853	42.73912	0.35809	 	268067.5175	 	2.72771E-5	 	32714.03818	37.29938	 
1220.0	1.0	0.0	7.77543	7.26518	-3.06653	17.9015	32.88412	1.11246	0.89891	116.56493	136.72283	42.92084	0.35791	 	288504.8595	 	2.52602E-5	 	32527.83195	37.24125	 
1215.0	1.0	0.0	7.77786	7.2629	-3.09683	17.88352	32.79755	1.11166	0.89956	117.04199	137.10528	43.10232	0.35772	 	310653.6731	 	2.33807E-5	 	32341.91602	37.18319	 
1210.0	1.0	0.0	7.78029	7.26064	-3.1271	17.86552	32.71097	1.11086	0.90021	117.51829	137.48589	43.28358	0.35754	 	334669.7368	 	2.16299E-5	 	32156.29004	37.1252	 
1205.0	1.0	0.0	7.78272	7.25837	-3.15732	17.84749	32.6244	1.11005	0.90086	117.99383	137.86466	43.4646	0.35736	 	360724.1161	 	2.0E-5	 	31970.95363	37.06728	 
1200.0	1.0	0.0	7.78515	7.25611	-3.1875	17.82945	32.53782	1.10924	0.90152	118.4686	138.24162	43.64539	0.35717	 	389004.7712	 	1.84833E-5	 	31785.90642	37.00944	 
1195.0	1.0	0.0	7.78757	7.25385	-3.21763	17.81138	32.45125	1.10842	0.90218	118.94261	138.61675	43.82594	0.35699	 	419718.344	 	1.70726E-5	 	31601.14805	36.95167	 
1190.0	1.0	0.0	7.78999	7.2516	-3.24773	17.79329	32.36467	1.1076	0.90285	119.41586	138.99007	44.00626	0.35681	 	453092.1467	 	1.57612E-5	 	31416.67815	36.89398	 
1185.0	1.0	0.0	7.79241	7.24934	-3.27778	17.77519	32.27809	1.10678	0.90352	119.88835	139.36158	44.18635	0.35662	 	489376.3761	 	1.45427E-5	 	31232.49636	36.83636	 
1180.0	1.0	0.0	7.79483	7.24709	-3.30779	17.75706	32.19151	1.10595	0.9042	120.36007	139.7313	44.36621	0.35644	 	528846.5805	 	1.34112E-5	 	31048.6023	36.77881	 
1175.0	1.0	0.0	7.79725	7.24485	-3.33775	17.73891	32.10493	1.10512	0.90488	120.83104	140.09923	44.54583	0.35626	 	571806.4098	 	1.23609E-5	 	30864.99561	36.72134	 
1170.0	1.0	0.0	7.79966	7.24261	-3.36768	17.72074	32.01835	1.10428	0.90557	121.30123	140.46537	44.72521	0.35607	 	618590.6836	 	1.13866E-5	 	30681.67591	36.66394	 
1165.0	1.0	0.0	7.80208	7.24037	-3.39755	17.70255	31.93177	1.10344	0.90626	121.77067	140.82974	44.90436	0.35589	 	669568.8154	 	1.04832E-5	 	30498.64285	36.60661	 
1160.0	1.0	0.0	7.80449	7.23813	-3.42739	17.68434	31.84519	1.10259	0.90696	122.23934	141.19235	45.08328	0.35571	 	725148.6386	 	9.64609E-6	 	30315.89604	36.54936	 
1155.0	1.0	0.0	7.80689	7.2359	-3.45718	17.6661	31.7586	1.10174	0.90766	122.70725	141.55319	45.26197	0.35552	 	785780.6819	 	8.87073E-6	 	30133.43512	36.49218	 
1150.0	1.0	0.0	7.8093	7.23367	-3.48693	17.64785	31.67202	1.10088	0.90836	123.1744	141.91227	45.44042	0.35534	 	851962.9516	 	8.15299E-6	 	29951.25973	36.43508	 
1145.0	1.0	0.0	7.81171	7.23144	-3.51664	17.62958	31.58543	1.10002	0.90907	123.64079	142.26961	45.61863	0.35516	 	924246.2845	 	7.48895E-6	 	29769.36949	36.37805	 
1140.0	1.0	0.0	7.81411	7.22922	-3.5463	17.61128	31.49885	1.09916	0.90979	124.10641	142.6252	45.79661	0.35497	 	1003240.343	 	6.87496E-6	 	29587.76404	36.32109	 
1135.0	1.0	0.0	7.81651	7.227	-3.57592	17.59297	31.41226	1.09829	0.91051	124.57127	142.97907	45.97436	0.35479	 	1089620.334	 	6.30755E-6	 	29406.44299	36.26421	 
1130.0	1.0	0.0	7.81891	7.22478	-3.60549	17.57463	31.32567	1.09741	0.91123	125.03537	143.3312	46.15187	0.35461	 	1184134.545	 	5.78349E-6	 	29225.40599	36.2074	 
1125.0	1.0	0.0	7.8213	7.22257	-3.63502	17.55628	31.23908	1.09653	0.91197	125.4987	143.68161	46.32914	0.35443	 	1287612.803	 	5.29975E-6	 	29044.65266	36.15066	 
1120.0	1.0	0.0	7.8237	7.22036	-3.66451	17.5379	31.15249	1.09565	0.9127	125.96127	144.03032	46.50618	0.35424	 	1400975.971	 	4.85349E-6	 	28864.18263	36.09401	 
1115.0	1.0	0.0	7.82609	7.21815	-3.69395	17.5195	31.06589	1.09476	0.91344	126.42308	144.37731	46.68299	0.35406	 	1525246.63	 	4.44205E-6	 	28683.99554	36.03742	 
1110.0	1.0	0.0	7.82848	7.21595	-3.72335	17.50109	30.9793	1.09387	0.91419	126.88413	144.7226	46.85956	0.35388	 	1661561.085	 	4.06293E-6	 	28504.091	35.98091	 
1105.0	1.0	0.0	7.83086	7.21375	-3.7527	17.48265	30.8927	1.09297	0.91494	127.34441	145.0662	47.0359	0.35369	 	1811182.881	 	3.71382E-6	 	28324.46865	35.92447	 
1100.0	1.0	0.0	7.83325	7.21155	-3.78201	17.46419	30.80611	1.09206	0.9157	127.80393	145.40812	47.212	0.35351	 	1975518.034	 	3.39253E-6	 	28145.12812	35.86811	 
1095.0	1.0	0.0	7.83563	7.20936	-3.81127	17.44571	30.71951	1.09115	0.91646	128.26269	145.74835	47.38786	0.35333	 	2156132.191	 	3.09703E-6	 	27966.06902	35.81182	 
1090.0	1.0	0.0	7.83801	7.20717	-3.84049	17.42721	30.63291	1.09024	0.91723	128.72069	146.08691	47.56349	0.35315	 	2354769.997	 	2.82541E-6	 	27787.291	35.7556	 
1085.0	1.0	0.0	7.84039	7.20498	-3.86967	17.40869	30.5463	1.08932	0.918	129.17792	146.4238	47.73888	0.35296	 	2573376.953	 	2.57591E-6	 	27608.79368	35.69946	 
1080.0	1.0	0.0	7.84277	7.2028	-3.8988	17.39015	30.4597	1.08839	0.91878	129.63439	146.75903	47.91404	0.35278	 	2814124.113	 	2.34687E-6	 	27430.57668	35.6434	 
1075.0	1.0	0.0	7.84514	7.20062	-3.92789	17.37159	30.37309	1.08746	0.91957	130.0901	147.0926	48.08896	0.3526	 	3079436.019	 	2.13675E-6	 	27252.63963	35.58741	 
1070.0	1.0	0.0	7.84752	7.19844	-3.95693	17.35301	30.28649	1.08653	0.92036	130.54504	147.42453	48.26364	0.35242	 	3372022.297	 	1.94411E-6	 	27074.98214	35.5315	 
1065.0	1.0	0.0	7.84989	7.19627	-3.98592	17.33441	30.19988	1.08559	0.92116	130.99922	147.75482	48.43809	0.35223	 	3694913.455	 	1.76761E-6	 	26897.60386	35.47566	 
1060.0	1.0	0.0	7.85225	7.1941	-4.01487	17.31579	30.11326	1.08464	0.92196	131.45264	148.08347	48.6123	0.35205	 	4051501.442	 	1.60602E-6	 	26720.50441	35.41989	 
1055.0	1.0	0.0	7.85462	7.19193	-4.04378	17.29715	30.02665	1.08369	0.92277	131.9053	148.41049	48.78628	0.35187	 	4445585.675	 	1.45816E-6	 	26543.68341	35.3642	 
1050.0	1.0	0.0	7.85698	7.18977	-4.07264	17.27849	29.94004	1.08274	0.92359	132.35719	148.73589	48.96002	0.35169	 	4881425.272	 	1.32297E-6	 	26367.14048	35.30859	 
1045.0	1.0	0.0	7.85934	7.18761	-4.10145	17.25981	29.85342	1.08177	0.92441	132.80832	149.05967	49.13352	0.3515	 	5363798.414	 	1.19944E-6	 	26190.87524	35.25305	 
1040.0	1.0	0.0	7.8617	7.18545	-4.13022	17.24111	29.7668	1.08081	0.92523	133.25869	149.38184	49.30678	0.35132	 	5898069.844	 	1.08665E-6	 	26014.88733	35.19758	 
1035.0	1.0	0.0	7.86406	7.1833	-4.15895	17.22239	29.68018	1.07983	0.92607	133.7083	149.70241	49.47981	0.35114	 	6490267.69	 	9.83743E-7	 	25839.17635	35.1422	 
1030.0	1.0	0.0	7.86641	7.18115	-4.18762	17.20365	29.59355	1.07886	0.92691	134.15714	150.02138	49.6526	0.35096	 	7147170.979	 	8.89912E-7	 	25663.74194	35.08688	 
1025.0	1.0	0.0	7.86876	7.179	-4.21626	17.18489	29.50693	1.07787	0.92775	134.60522	150.33875	49.82516	0.35078	 	7876409.397	 	8.04421E-7	 	25488.58372	35.03165	 
1020.0	1.0	0.0	7.87111	7.17686	-4.24484	17.1661	29.4203	1.07688	0.92861	135.05254	150.65454	49.99747	0.35059	 	8686577.147	 	7.26586E-7	 	25313.70129	34.97649	 
1015.0	1.0	0.0	7.87346	7.17472	-4.27338	17.1473	29.33367	1.07589	0.92947	135.49909	150.96875	50.16955	0.35041	 	9587362.961	 	6.55774E-7	 	25139.09428	34.9214	 
1010.0	1.0	0.0	7.8758	7.17259	-4.30188	17.12848	29.24703	1.07488	0.93033	135.94488	151.28139	50.3414	0.35023	 	1.058969874E7	 	5.91399E-7	 	24964.76232	34.86639	 
1005.0	1.0	0.0	7.87815	7.17045	-4.33033	17.10964	29.1604	1.07388	0.93121	136.38991	151.59246	50.513	0.35005	 	1.17059296E7	 	5.32921E-7	 	24790.70501	34.81146	 
1000.0	1.0	0.0	7.88048	7.16833	-4.35873	17.09078	29.07376	1.07286	0.93208	136.83418	151.90197	50.68437	0.34987	 	1.295000863E7	 	4.7984E-7	 	24616.92199	34.75661	 
995.0	1.0	0.0	7.88282	7.1662	-4.38708	17.0719	28.98712	1.07184	0.93297	137.27768	152.20992	50.8555	0.34968	 	1.433772013E7	 	4.31695E-7	 	24443.41285	34.70183	 
990.0	1.0	0.0	7.88516	7.16408	-4.41539	17.05301	28.90047	1.07082	0.93386	137.72042	152.51632	51.02639	0.3495	 	1.58869357E7	 	3.88062E-7	 	24270.17722	34.64713	 
985.0	1.0	0.0	7.88749	7.16196	-4.44366	17.03409	28.81383	1.06979	0.93476	138.1624	152.82117	51.19704	0.34932	 	1.761790842E7	 	3.4855E-7	 	24097.21472	34.5925	 
980.0	1.0	0.0	7.88982	7.15985	-4.47187	17.01515	28.72718	1.06875	0.93567	138.60362	153.12449	51.36746	0.34914	 	1.955361091E7	 	3.12797E-7	 	23924.52495	34.53795	 
975.0	1.0	0.0	7.89215	7.15773	-4.50004	16.99619	28.64052	1.06771	0.93659	139.04407	153.42627	51.53763	0.34896	 	2.172012437E7	 	2.80473E-7	 	23752.10753	34.48348	 
970.0	1.0	0.0	7.89447	7.15563	-4.52816	16.97721	28.55387	1.06666	0.93751	139.48376	153.72653	51.70757	0.34878	 	2.414708666E7	 	2.51273E-7	 	23579.96208	34.42909	 
965.0	1.0	0.0	7.89679	7.15352	-4.55624	16.95822	28.46721	1.0656	0.93844	139.92269	154.02527	51.87727	0.34859	 	2.686820884E7	 	2.24916E-7	 	23408.08818	34.37478	 
960.0	1.0	0.0	7.89911	7.15142	-4.58427	16.9392	28.38055	1.06454	0.93937	140.36085	154.32249	52.04673	0.34841	 	2.992187133E7	 	2.01147E-7	 	23236.48548	34.32054	 
955.0	1.0	0.0	7.90143	7.14932	-4.61225	16.92017	28.29388	1.06347	0.94032	140.79826	154.6182	52.21596	0.34823	 	3.335181253E7	 	1.79729E-7	 	23065.15356	34.26638	 
950.0	1.0	0.0	7.90374	7.14723	-4.64018	16.90111	28.20721	1.06239	0.94127	141.2349	154.9124	52.38494	0.34805	 	3.720792518E7	 	1.60447E-7	 	22894.09204	34.2123	 
945.0	1.0	0.0	7.90606	7.14514	-4.66807	16.88204	28.12054	1.06131	0.94223	141.67077	155.20511	52.55369	0.34787	 	4.154717816E7	 	1.43102E-7	 	22723.30052	34.1583	 
940.0	1.0	0.0	7.90837	7.14305	-4.69591	16.86295	28.03387	1.06022	0.9432	142.10589	155.49632	52.72219	0.34769	 	4.643468475E7	 	1.27514E-7	 	22552.7786	34.10438	 
935.0	1.0	0.0	7.91067	7.14097	-4.7237	16.84384	27.94719	1.05913	0.94417	142.54024	155.78605	52.89046	0.3475	 	5.194494173E7	 	1.13518E-7	 	22382.52589	34.05054	 
930.0	1.0	0.0	7.91298	7.13889	-4.75145	16.8247	27.86051	1.05803	0.94516	142.97383	156.07429	53.05849	0.34732	 	5.816326832E7	 	1.00962E-7	 	22212.54198	33.99678	 
925.0	1.0	0.0	7.91528	7.13682	-4.77915	16.80556	27.77382	1.05692	0.94615	143.40665	156.36106	53.22628	0.34714	 	6.518747906E7	 	8.97085E-8	 	22042.82649	33.9431	 
920.0	1.0	0.0	7.91758	7.13474	-4.8068	16.78639	27.68713	1.0558	0.94715	143.83872	156.64636	53.39382	0.34696	 	7.312983056E7	 	7.96319E-8	 	21873.379	33.8895	 
915.0	1.0	0.0	7.91987	7.13267	-4.8344	16.7672	27.60044	1.05468	0.94815	144.27002	156.93019	53.56113	0.34678	 	8.211928973E7	 	7.06176E-8	 	21704.19912	33.83598	 
910.0	1.0	0.0	7.92217	7.13061	-4.86195	16.74799	27.51374	1.05355	0.94917	144.70056	157.21256	53.7282	0.3466	 	9.230417941E7	 	6.25612E-8	 	21535.28642	33.78254	 
905.0	1.0	0.0	7.92446	7.12855	-4.88946	16.72877	27.42704	1.05242	0.95019	145.13033	157.49347	53.89503	0.34642	 	1.038552677E8	 	5.5368E-8	 	21366.64051	33.72918	 
900.0	1.0	0.0	7.92675	7.12649	-4.91692	16.70953	27.34033	1.05127	0.95123	145.55934	157.77294	54.06162	0.34624	 	1.169693795E8	 	4.89517E-8	 	21198.26099	33.6759	 
895.0	1.0	0.0	7.92903	7.12443	-4.94433	16.69026	27.25362	1.05012	0.95227	145.98759	158.05096	54.22797	0.34605	 	1.318736238E8	 	4.32342E-8	 	21030.14742	33.62271	 
890.0	1.0	0.0	7.93132	7.12238	-4.97169	16.67098	27.16691	1.04897	0.95332	146.41508	158.32754	54.39408	0.34587	 	1.488303468E8	 	3.81444E-8	 	20862.29941	33.5696	 
885.0	1.0	0.0	7.9336	7.12034	-4.999	16.65168	27.08019	1.0478	0.95438	146.8418	158.60269	54.55995	0.34569	 	1.681429436E8	 	3.36181E-8	 	20694.71653	33.51658	 
880.0	1.0	0.0	7.93587	7.11829	-5.02627	16.63237	26.99347	1.04663	0.95545	147.26777	158.87641	54.72558	0.34551	 	1.901626837E8	 	2.9597E-8	 	20527.39813	33.46368	 
875.0	1.0	0.0	7.93815	7.11625	-5.05348	16.61303	26.90674	1.04545	0.95653	147.69296	159.14871	54.89097	0.34533	 	2.15296739E8	 	2.60284E-8	 	20360.34377	33.41087	 
870.0	1.0	0.0	7.94042	7.11422	-5.08065	16.59368	26.82001	1.04426	0.95761	148.1174	159.41959	55.05612	0.34515	 	2.440176364E8	 	2.28649E-8	 	20193.55342	33.35807	 
865.0	1.0	0.0	7.94269	7.11218	-5.10777	16.57431	26.73327	1.04307	0.95871	148.54107	159.68906	55.22103	0.34497	 	2.768744027E8	 	2.00633E-8	 	20027.02665	33.30535	 
860.0	1.0	0.0	7.94496	7.11016	-5.13484	16.55492	26.64653	1.04187	0.95981	148.96399	159.95712	55.38569	0.34479	 	3.145057198E8	 	1.75851E-8	 	19860.76306	33.25272	 
857.81	1.0	0.0	7.94595	7.10927	-5.14669	16.54641	26.60849	1.04134	0.9603	149.14916	160.0742	55.45781	0.34471	 	3.326966514E8	 	1.65915E-8	 	19787.95006	33.21488	 
855.0	1.0	0.0	7.94773	7.10768	-5.16789	16.50893	26.53979	1.04144	0.96021	149.50708	160.30057	55.59722	0.34456	 	3.590565088E8	 	1.53352E-8	 	19666.11754	43.39043	 
850.0	1.0	0.0	7.95087	7.10487	-5.20541	16.44253	26.41851	1.04159	0.96007	150.13932	160.69974	55.84352	0.34429	 	4.116222953E8	 	1.33176E-8	 	19450.15803	43.1919	 
845.0	1.0	0.0	7.95313	7.10285	-5.23233	16.42268	26.33213	1.04035	0.96121	150.55944	160.96321	56.00729	0.34411	 	4.691994646E8	 	1.16313E-8	 	19287.9885	32.43391	 
840.0	1.0	0.0	7.95539	7.10084	-5.25919	16.40281	26.24575	1.03911	0.96236	150.9788	161.2253	56.17081	0.34393	 	5.354598548E8	 	1.01464E-8	 	19122.7683	33.04404	 
835.0	1.0	0.0	7.95764	7.09883	-5.28601	16.38292	26.15936	1.03786	0.96352	151.3974	161.48601	56.3341	0.34375	 	6.118064177E8	 	8.84039E-9	 	18957.80921	32.99182	 
830.0	1.0	0.0	7.95989	7.09682	-5.31277	16.363	26.07296	1.0366	0.96469	151.81524	161.74535	56.49714	0.34357	 	6.998837088E8	 	7.69299E-9	 	18793.11081	32.93968	 
