T (C)	Fraction solid (wt)-TOTAL	Fraction liquid (wt)-LIQUID	Density (g/(cm)^3)-TOTAL	Molar volume (cm^3)-TOTAL	Volume change (%)-  	Average expansion coeff. (10e-6 1/K)-  	Thermal conductivity (W/(m*K))-TOTAL	Electrical resistivity (10e-6 Ohm*m)-TOTAL	Electrical conductivity (10e6 1/(Ohm*m))-TOTAL	Young's modulus (GPa)-TOTAL	Bulk modulus (GPa)-TOTAL	Shear modulus(GPa)-TOTAL	Poisson's ratio-TOTAL	Liquid viscosity (mPa s)-  	Total viscosity (mPa s)-  	Liquid diffusivity (10e-9 (m^2)/s)-  	Total diffusivity (10e-9 (m^2)/s)-  	Surface Tension (mN/m)-  	Enthalpy (J/mole)-TOTAL	Specific heat (J/(mole K))-TOTAL	Latent heat (J/mole)-TOTAL
1400.0	0.00589	0.99411	6.81713	7.92228	0.0	34.59093	30.78598	1.33152	0.75102	1.92516E-6	119.62392	6.4263E-7	0.49788	5.94485	5.94485	1.37366	1.37366	1725.16702	38399.648	 	0.0
1395.0	0.00602	0.99398	6.82128	7.91746	-0.0608931	34.54787	30.69862	1.33132	0.75113	2.09792E-6	119.8003	7.0032E-7	0.49783	6.00987	6.00987	1.35474	1.35474	1727.49057	38188.648	42.2	10.011
1390.0	0.00614	0.99386	6.82536	7.91275	-0.12034	34.50854	30.61137	1.33111	0.75125	2.27952E-6	119.97663	7.60963E-7	0.49779	6.07589	6.07589	1.33601	1.33601	1729.83605	37978.234	42.0828	19.887
1385.0	0.00626	0.99374	6.82948	7.90791	-0.18137	34.46447	30.52398	1.33091	0.75137	2.47118E-6	120.15113	8.2497E-7	0.49774	6.14304	6.14304	1.31743	1.31743	1732.2057	37768.401	41.9666	29.627
1380.0	0.00638	0.99362	6.83354	7.90321	-0.2407	34.42488	30.43669	1.3307	0.75148	2.67072E-6	120.32566	8.91609E-7	0.4977	6.21126	6.21126	1.29903	1.29903	1734.59693	37559.147	41.8508	39.231
1375.0	0.0065	0.9935	6.83765	7.89851	-0.30005	34.38491	30.34964	1.33048	0.75161	2.88037E-6	120.5009	9.61627E-7	0.49765	6.28068	6.28068	1.28079	1.28079	1737.01091	37350.467	41.736	48.702
1370.0	0.00662	0.99338	6.84173	7.8937	-0.36071	34.34096	30.2623	1.33027	0.75172	3.10021E-6	120.67336	1.03506E-6	0.49761	6.35123	6.35123	1.26272	1.26272	1739.44849	37142.357	41.622	58.04
1365.0	0.00673	0.99327	6.84576	7.88909	-0.41892	34.30365	30.17525	1.33005	0.75185	3.32774E-6	120.847	1.11105E-6	0.49757	6.42292	6.42292	1.24482	1.24482	1741.90663	36934.815	41.5084	67.247
1360.0	0.00684	0.99316	6.84983	7.88442	-0.47787	34.26393	30.08825	1.32983	0.75198	3.56535E-6	121.02023	1.19041E-6	0.49752	6.49589	6.49589	1.22708	1.22708	1744.38757	36727.837	41.3956	76.321
1355.0	0.00696	0.99304	6.85388	7.87971	-0.53737	34.22232	30.00116	1.3296	0.7521	3.81198E-6	121.19168	1.2728E-6	0.49748	6.57007	6.57007	1.20951	1.20951	1746.89097	36521.419	41.2836	85.267
1350.0	0.00707	0.99293	6.85789	7.8752	-0.59426	34.18793	29.9143	1.32937	0.75224	4.06834E-6	121.36491	1.35843E-6	0.49745	6.6455	6.6455	1.19211	1.19211	1749.41407	36315.557	41.1724	94.083
1345.0	0.00718	0.99282	6.86192	7.87056	-0.65283	34.14844	29.82735	1.32914	0.75237	4.33378E-6	121.53602	1.4471E-6	0.4974	6.72225	6.72225	1.17487	1.17487	1751.96001	36110.249	41.0616	102.771
1340.0	0.00728	0.99272	6.86595	7.86595	-0.71109	34.10951	29.74048	1.3289	0.7525	4.60764E-6	121.70683	1.53858E-6	0.49736	6.80034	6.80034	1.15779	1.15779	1754.52695	35905.49	40.9518	111.333
1337.4	0.00734	0.99266	6.86805	7.86356	-0.74124	34.0897	29.69531	1.32877	0.75257	4.75426E-6	121.79592	1.58756E-6	0.49734	6.84155	6.9576	1.14896	1.1298	1755.87225	35799.043	40.869	115.744
1335.0	0.11624	0.88376	6.90286	7.82384	-1.2426	32.6943	30.00812	1.31297	0.76163	0.0120775	122.46465	0.00406887	0.48414	6.8909	11.47602	1.13903	0.68395	1755.94203	34238.174	651.60828	1582.865
1330.0	0.30262	0.69738	6.96327	7.756	-2.0989	30.32025	30.56184	1.28517	0.77811	0.68756	124.64878	0.23528	0.46114	6.99371	157.35141	1.1188	0.0497268	1755.85039	31556.968	536.2412	4068.711
1325.0	0.43823	0.56177	7.00825	7.70616	-2.72802	28.59356	30.97295	1.26416	0.79104	3.23847	126.3228	1.12131	0.44406	7.09658	679.20202	1.09915	0.0114843	1757.92247	29578.16412	395.76078	5852.411
1320.0	0.53978	0.46022	7.04269	7.66837	-3.20501	27.30097	31.27733	1.24794	0.80132	7.76932	127.66825	2.71455	0.43105	7.19993	1619.74255	1.07998	0.00480062	1760.00368	28067.75589	302.08165	7167.212
1315.0	0.61765	0.38235	7.06974	7.6389	-3.57699	26.30847	31.51193	1.23476	0.80987	13.71259	128.78705	4.82524	0.42092	7.30415	2910.29572	1.06123	0.00266343	1762.09394	26881.05463	237.34025	8158.74
1310.0	0.67855	0.32145	7.09146	7.61537	-3.87398	25.5305	31.6887	1.22401	0.81699	20.41781	129.74457	7.22558	0.41288	7.40961	4463.7198	1.04283	0.00173106	1764.19296	25923.80006	191.45091	8921.257
1305.0	0.72697	0.27303	7.10922	7.59623	-4.11558	24.91128	31.82018	1.2151	0.82298	27.37225	130.5845	9.73129	0.4064	7.51642	6208.06169	1.02476	0.00124073	1766.29954	25133.05977	158.14806	9517.685
1300.0	0.76602	0.23398	7.124	7.58034	-4.31618	24.40971	31.91574	1.20762	0.82807	34.2355	131.3367	12.21736	0.4011	7.62495	8094.274	1.00698	9.48591E-4	1768.41466	24465.6774	133.47647	9991.182
1295.0	0.79792	0.20208	7.13649	7.56695	-4.48522	23.99882	31.98256	1.20127	0.83245	40.80151	132.02148	14.60634	0.39671	7.73528	10091.34703	0.98946	7.58447E-4	1770.53698	23891.35455	114.86457	10372.042
1290.0	0.82428	0.17572	7.14723	7.55544	-4.63052	23.65619	32.02623	1.19581	0.83626	46.96551	132.6536	16.85749	0.39302	7.84778	12183.66609	0.97217	6.26195E-4	1772.66897	23388.37683	100.59554	10681.977
1285.0	0.84627	0.15373	7.15655	7.54548	-4.75619	23.37015	32.05107	1.19106	0.83959	52.68194	133.24485	18.95186	0.38989	7.96254	14365.35018	0.95509	5.29395E-4	1774.80567	22940.89388	89.49659	10936.835
1280.0	0.86824	0.13176	7.16557	7.53579	-4.8785	23.09205	32.07613	1.18631	0.84295	58.92731	133.86272	21.24685	0.38673	8.08484	16901.88547	0.93762	4.48503E-4	1776.89559	22491.48529	89.88172	11194.034
1275.0	0.88987	0.11013	7.17426	7.52641	-4.99693	22.82355	32.10093	1.18158	0.84633	65.63965	134.4938	23.72084	0.38359	8.21362	19818.01944	0.91995	3.81276E-4	1778.93585	22045.68772	89.15951	11448.034
1270.0	0.90734	0.0926563	7.18172	7.51833	-5.09898	22.60298	32.10681	1.17754	0.84923	71.54543	135.07431	25.90365	0.38099	8.3436	22782.50906	0.9027	3.30593E-4	1780.97834	21652.55277	78.62699	11649.782
1265.0	0.92163	0.0783708	7.18824	7.51124	-5.18841	22.41943	32.09786	1.17406	0.85175	76.74299	135.61663	27.82925	0.37882	8.47497	25814.89903	0.88582	2.90814E-4	1783.02123	21299.42508	70.62554	11811.929
1260.0	0.93343	0.0665663	7.19402	7.50493	-5.26804	22.26461	32.07708	1.171	0.85397	81.3217	136.12885	29.52905	0.37698	8.60766	28934.85052	0.86933	2.58613E-4	1785.06466	20977.15927	64.45316	11943.619
1255.0	0.94329	0.0567139	7.19924	7.49923	-5.34008	22.13203	32.04683	1.16828	0.85596	85.3699	136.61702	31.03463	0.3754	8.74181	32165.66052	0.8532	2.31878E-4	1787.10926	20679.0319	59.62547	12051.575
1250.0	0.95158	0.0484181	7.20399	7.49401	-5.40595	22.01754	32.00883	1.16584	0.85775	88.96481	137.08582	32.37376	0.37403	8.8773	35531.00669	0.83743	2.09229E-4	1789.15334	20400.02286	55.80181	12140.809
1245.0	0.95863	0.0413742	7.20839	7.48918	-5.46691	21.91747	31.96453	1.16362	0.85938	92.17372	137.53886	33.57085	0.37282	9.01447	39055.59676	0.82198	1.89722E-4	1791.19687	20136.33546	52.73748	12215.119
1240.0	0.96465	0.0353477	7.21248	7.48466	-5.52391	21.82895	31.91499	1.16159	0.86089	95.05304	137.97851	34.64642	0.37176	9.15304	42764.22076	0.80687	1.72698E-4	1793.24031	19885.05764	50.25556	12277.414
1235.0	0.96985	0.0301549	7.21633	7.4804	-5.57765	21.74999	31.8611	1.15971	0.86228	97.65122	138.40706	35.61817	0.37081	9.29324	46682.92455	0.79207	1.57679E-4	1795.28289	19643.93378	48.22477	12329.946
1230.0	0.97435	0.025652	7.21998	7.47636	-5.62872	21.67881	31.80357	1.15796	0.86359	100.00891	138.82606	36.50101	0.36995	9.43507	50838.49711	0.77758	1.4431E-4	1797.3254	19411.19879	46.547	12374.478
1225.0	0.97828	0.0217233	7.22346	7.47249	-5.67752	21.61424	31.74293	1.15631	0.86482	102.15979	139.23684	37.30729	0.36917	9.57835	55258.70364	0.7634	1.32325E-4	1799.36534	19185.45305	45.14915	12412.408
1220.0	0.98172	0.0182763	7.22739	7.46837	-5.72953	21.53891	31.64311	1.15609	0.86499	104.26211	139.70133	38.0978	0.36835	9.72335	60055.52375	0.7495	1.21349E-4	1801.40456	18939.99447	49.09172	12444.85
1215.0	0.98476	0.0152363	7.23516	7.46147	-5.81659	21.35075	31.29574	1.165	0.85837	107.10642	140.57231	39.17939	0.36687	9.87005	65826.9312	0.73589	1.10339E-4	1803.44149	18520.82308	83.83428	12472.7
1210.0	0.98746	0.0125416	7.24241	7.4547	-5.90216	21.16578	30.9643	1.17352	0.85214	109.76667	141.39528	40.19298	0.3655	10.01856	72067.50886	0.72255	1.00446E-4	1805.47691	18115.29314	81.10599	12496.684
1205.0	0.98978	0.0102229	7.24916	7.44806	-5.98596	20.98496	30.64535	1.18173	0.84621	112.23317	142.17973	41.13469	0.36422	10.18066	78801.7648	0.70865	9.15523E-5	1807.50837	17721.26564	78.8055	12518.364
1200.0	0.99193	0.00807193	7.25554	7.44147	-6.06909	20.80477	30.33788	1.18967	0.84057	114.60312	142.9332	42.04085	0.363	10.35171	86128.01751	0.69458	8.34813E-5	1809.5189	17334.41174	77.37078	12541.535
1195.0	0.99389	0.00610733	7.26152	7.43503	-6.15037	20.62909	30.04427	1.19722	0.83527	116.85103	143.64913	42.90164	0.36185	10.52332	94082.46092	0.68093	7.61638E-5	1811.52173	16957.86368	75.30961	12562.574
1190.0	0.99566	0.00434451	7.2671	7.42876	-6.22947	20.45899	29.76365	1.20439	0.83029	118.96842	144.32985	43.71371	0.36077	10.69732	102710.2065	0.66758	6.95284E-5	1813.51896	16591.70012	73.23271	12580.943
1185.0	0.99725	0.00275336	7.27232	7.42266	-6.30653	20.29416	29.49514	1.21121	0.82562	120.96942	144.97856	44.48226	0.35975	10.87377	112077.087	0.6545	6.34998E-5	1815.51264	16235.10494	71.31904	12597.038
1180.0	0.99869	0.00131237	7.27722	7.41671	-6.38161	20.13441	29.23805	1.21767	0.82124	122.86435	145.59806	45.21105	0.35879	11.05253	122253.6317	0.64171	5.80143E-5	1817.50073	15887.35939	69.54911	12611.183
1175.0	1.0	0.0	7.28183	7.41091	-6.45484	19.97941	28.99176	1.22378	0.81714	124.66405	146.19081	45.90409	0.35788	 	133318.9116	 	5.30162E-5	 	15547.82641	67.9066	12623.649
1170.44	1.0	0.0	7.28616	7.40651	-6.51038	19.87419	28.76927	1.22937	0.81343	125.65517	146.67867	46.29132	0.35722	 	143917.0636	 	4.89575E-5	 	15291.25145	 	 
1170.0	1.0	0.0	7.28657	7.40609	-6.5157	19.86418	28.7481	1.2299	0.81308	125.74986	146.72517	46.32833	0.35716	 	144994.8732	 	4.85787E-5	 	15264.16186	56.73291	 
1167.4	1.0	0.0	7.28899	7.40363	-6.54672	19.80592	28.62533	1.23295	0.81106	126.30018	146.99484	46.54349	0.3568	 	151502.4985	 	4.64084E-5	 	15106.05808	 	 
1167.4	1.0	0.0	7.28899	7.40363	-6.54679	19.80572	28.6251	1.23296	0.81106	126.30102	146.99521	46.54382	0.3568	 	151510.9206	 	4.64057E-5	 	15105.77571	 	 
1165.0	1.0	0.0	7.29121	7.40138	-6.57514	19.75272	28.51374	1.23571	0.80925	126.80192	147.2401	46.73974	0.35647	 	157814.8855	 	4.44778E-5	 	14960.78017	60.67634	 
1160.0	1.0	0.0	7.29575	7.39677	-6.63328	19.64461	28.28822	1.24123	0.80565	127.82145	147.73627	47.13876	0.3558	 	171895.2732	 	4.06925E-5	 	14662.64806	59.62642	 
1155.0	1.0	0.0	7.3002	7.39226	-6.69026	19.53948	28.07104	1.24647	0.80227	128.80991	148.21458	47.52594	0.35515	 	187367.1985	 	3.72021E-5	 	14369.65074	58.59946	 
1150.0	1.0	0.0	7.30457	7.38783	-6.74612	19.43717	27.86168	1.25144	0.79908	129.76897	148.67622	47.9019	0.35453	 	204380.1533	 	3.39859E-5	 	14081.532	57.62375	 
1145.0	1.0	0.0	7.30887	7.38349	-6.80093	19.33756	27.6597	1.25615	0.79608	130.70016	149.12228	48.26721	0.35392	 	223100.8941	 	3.10247E-5	 	13798.05252	56.6959	 
1140.0	1.0	0.0	7.31309	7.37923	-6.85473	19.24049	27.46465	1.26061	0.79327	131.60491	149.55374	48.62241	0.35334	 	243715.525	 	2.83003E-5	 	13518.98798	55.81291	 
1135.0	1.0	0.0	7.31724	7.37504	-6.90756	19.14585	27.27615	1.26483	0.79062	132.48456	149.97151	48.96799	0.35277	 	266431.961	 	2.57958E-5	 	13244.12855	54.97188	 
1130.0	1.0	0.0	7.32133	7.37093	-6.95948	19.05352	27.09381	1.26882	0.78813	133.34036	150.37641	49.30443	0.35221	 	291482.5769	 	2.34951E-5	 	12973.27751	54.17021	 
1125.0	1.0	0.0	7.32534	7.36689	-7.01053	18.96337	26.91728	1.27259	0.7858	134.17348	150.76921	49.63216	0.35168	 	319127.3296	 	2.13834E-5	 	12706.25002	53.4055	 
1120.0	1.0	0.0	7.3293	7.36291	-7.06074	18.87532	26.74624	1.27615	0.78361	134.98503	151.15061	49.95159	0.35116	 	349657.2003	 	1.94465E-5	 	12442.872	52.6756	 
1115.0	1.0	0.0	7.3332	7.359	-7.11014	18.78925	26.58037	1.2795	0.78155	135.77604	151.52127	50.26313	0.35065	 	383398.171	 	1.76715E-5	 	12182.97995	51.97841	 
1110.0	1.0	0.0	7.33704	7.35514	-7.15879	18.70507	26.41939	1.28266	0.77963	136.5475	151.88178	50.56714	0.35016	 	420715.6738	 	1.6046E-5	 	11926.4196	51.31207	 
1105.0	1.0	0.0	7.34083	7.35135	-7.2067	18.6227	26.26303	1.28564	0.77783	137.30033	152.23273	50.86397	0.34968	 	462019.7131	 	1.45587E-5	 	11673.0457	50.67478	 
1100.0	1.0	0.0	7.34457	7.34761	-7.2539	18.54205	26.11104	1.28843	0.77614	138.03542	152.57463	51.15396	0.34922	 	507770.5924	 	1.31989E-5	 	11422.72053	50.06504	 
1095.0	1.0	0.0	7.34825	7.34392	-7.30044	18.46305	25.96318	1.29105	0.77457	138.7536	152.908	51.43742	0.34876	 	558485.5591	 	1.19566E-5	 	11175.3143	49.48124	 
1090.0	1.0	0.0	7.35189	7.34028	-7.34633	18.3856	25.81923	1.2935	0.7731	139.45565	153.23329	51.71464	0.34832	 	614746.2179	 	1.08227E-5	 	10930.70411	48.92204	 
1085.0	1.0	0.0	7.35549	7.3367	-7.3916	18.30966	25.67899	1.29579	0.77173	140.14233	153.55094	51.98592	0.34789	 	677207.1102	 	9.78843E-6	 	10688.77362	48.3861	 
1080.0	1.0	0.0	7.35904	7.33316	-7.43627	18.23513	25.54226	1.29793	0.77045	140.81435	153.86137	52.25153	0.34747	 	746605.3982	 	8.84589E-6	 	10449.41235	47.87225	 
1075.0	1.0	0.0	7.36254	7.32966	-7.48038	18.16197	25.40885	1.29993	0.76927	141.4724	154.16496	52.51173	0.34706	 	823772.0082	 	7.98763E-6	 	10212.51574	47.37932	 
1070.0	1.0	0.0	7.36601	7.32621	-7.52393	18.09011	25.27861	1.30178	0.76818	142.1171	154.46208	52.76676	0.34665	 	909644.2549	 	7.20675E-6	 	9977.98452	46.90624	 
1065.0	1.0	0.0	7.36944	7.3228	-7.56696	18.0195	25.15136	1.3035	0.76717	142.74909	154.75308	53.01685	0.34626	 	1005280.375	 	6.49687E-6	 	9745.72455	46.45199	 
1060.0	1.0	0.0	7.37283	7.31944	-7.60948	17.95006	25.02695	1.30508	0.76624	143.36894	155.03828	53.26224	0.34588	 	1111876.05	 	5.85207E-6	 	9515.64619	46.01567	 
1055.0	1.0	0.0	7.37619	7.31611	-7.65152	17.88176	24.90525	1.30654	0.76538	143.97721	155.31799	53.50313	0.3455	 	1230783.463	 	5.26686E-6	 	9287.66458	45.59632	 
1050.0	1.0	0.0	7.37951	7.31281	-7.69308	17.81455	24.78612	1.30788	0.7646	144.57443	155.5925	53.73972	0.34514	 	1363533.013	 	4.7362E-6	 	9061.69906	45.1931	 
1045.0	1.0	0.0	7.38279	7.30956	-7.73419	17.74837	24.66943	1.3091	0.76389	145.1611	155.86209	53.97222	0.34478	 	1511858.273	 	4.2554E-6	 	8837.67313	44.80519	 
1040.0	1.0	0.0	7.38605	7.30633	-7.77486	17.68317	24.56024	1.30993	0.7634	145.7377	156.12702	54.2008	0.34442	 	1677724.649	 	3.82015E-6	 	8615.51394	44.43184	 
1035.0	1.0	0.0	7.38927	7.30315	-7.8151	17.61893	24.44799	1.31093	0.76282	146.3047	156.38753	54.42564	0.34408	 	1863362.399	 	3.42647E-6	 	8395.15223	44.07234	 
1030.0	1.0	0.0	7.39247	7.29999	-7.85495	17.55558	24.33786	1.31183	0.76229	146.86253	156.64385	54.64691	0.34374	 	2071304.415	 	3.0707E-6	 	8176.52327	43.72579	 
1025.0	1.0	0.0	7.39563	7.29686	-7.89439	17.49311	24.22974	1.31263	0.76183	147.4116	156.8962	54.86477	0.34341	 	2304429.95	 	2.74946E-6	 	7959.56437	43.39178	 
1020.0	1.0	0.0	7.39877	7.29377	-7.93346	17.43146	24.12355	1.31333	0.76142	147.95231	157.1448	55.07937	0.34308	 	2566014.88	 	2.45967E-6	 	7744.2165	43.06957	 
1015.0	1.0	0.0	7.40188	7.2907	-7.97216	17.3706	24.01919	1.31394	0.76107	148.48504	157.38984	55.29086	0.34276	 	2859789.781	 	2.19846E-6	 	7530.42346	42.75861	 
1010.0	1.0	0.0	7.40497	7.28767	-8.0105	17.3105	23.91659	1.31445	0.76077	149.01014	157.6315	55.49937	0.34245	 	3190006.915	 	1.96324E-6	 	7318.1317	42.45835	 
1009.87	1.0	0.0	7.40504	7.28759	-8.01147	17.30899	23.914	1.31446	0.76077	149.02337	157.63759	55.50463	0.34244	 	3198903.903	 	1.95758E-6	 	7312.76201	 	 
1008.11	1.0	0.0	7.40616	7.2865	-8.02519	17.28692	23.87297	1.31491	0.76051	149.25679	157.73826	55.59762	0.34229	 	3327357.801	 	1.87942E-6	 	7226.63237	 	 
1005.0	1.0	0.0	7.40805	7.28464	-8.0487	17.25036	23.81059	1.31516	0.76037	149.57788	157.88628	55.72515	0.3421	 	3563661.409	 	1.75054E-6	 	7095.86187	44.45397	 
1000.0	1.0	0.0	7.41108	7.28167	-8.08625	17.19212	23.71155	1.31548	0.76018	150.0887	158.12187	55.92809	0.3418	 	3982326.702	 	1.56038E-6	 	6886.66669	41.83904	 
995.0	1.0	0.0	7.41408	7.27872	-8.12349	17.13453	23.61403	1.31573	0.76003	150.59289	158.35458	56.12844	0.3415	 	4454191.441	 	1.3896E-6	 	6678.83085	41.56717	 
990.0	1.0	0.0	7.41706	7.27579	-8.16042	17.07755	23.51796	1.3159	0.75994	151.09075	158.58454	56.32632	0.34121	 	4986505.102	 	1.23636E-6	 	6472.30666	41.30484	 
985.0	1.0	0.0	7.42002	7.27289	-8.19704	17.02117	23.42329	1.31598	0.75989	151.58256	158.81189	56.52184	0.34092	 	5587570.658	 	1.099E-6	 	6267.04908	41.05152	 
980.0	1.0	0.0	7.42296	7.27001	-8.23338	16.96535	23.32995	1.316	0.75988	152.0686	159.03679	56.7151	0.34064	 	6266906.372	 	9.7597E-7	 	6063.01456	40.8069	 
975.0	1.0	0.0	7.42588	7.26715	-8.26944	16.91006	23.23788	1.31594	0.75991	152.54913	159.25935	56.90621	0.34036	 	7035435.533	 	8.6589E-7	 	5860.16162	40.57059	 
970.0	1.0	0.0	7.42878	7.26432	-8.30523	16.85528	23.14705	1.31581	0.75999	153.02439	159.47969	57.09527	0.34008	 	7905705.724	 	7.67484E-7	 	5658.45063	40.3422	 
965.0	1.0	0.0	7.43166	7.2615	-8.34076	16.80098	23.05738	1.31562	0.7601	153.49463	159.69795	57.28235	0.33981	 	8892145.42	 	6.796E-7	 	5457.8435	40.12143	 
960.0	1.0	0.0	7.43452	7.25871	-8.37603	16.74714	22.96885	1.31535	0.76025	153.96006	159.91421	57.46756	0.33954	 	1.001136353E7	 	6.01187E-7	 	5258.30414	39.90787	 
955.0	1.0	0.0	7.43736	7.25593	-8.41105	16.69373	22.8814	1.31503	0.76044	154.42091	160.1286	57.65097	0.33927	 	1.128249711E7	 	5.31292E-7	 	5059.79792	39.70124	 
950.0	1.0	0.0	7.44019	7.25318	-8.44584	16.64073	22.79499	1.31464	0.76067	154.87737	160.34122	57.83267	0.33901	 	1.272762261E7	 	4.6905E-7	 	4862.29168	39.50125	 
945.0	1.0	0.0	7.44299	7.25044	-8.48039	16.58812	22.70959	1.31419	0.76093	155.32965	160.55214	58.01274	0.33875	 	1.43722315E7	 	4.13679E-7	 	4665.75365	39.30761	 
940.0	1.0	0.0	7.44579	7.24772	-8.51471	16.53588	22.62515	1.31368	0.76122	155.77793	160.76148	58.19124	0.3385	 	1.624579212E7	 	3.64469E-7	 	4470.15345	39.12004	 
935.0	1.0	0.0	7.44856	7.24502	-8.54882	16.48398	22.54164	1.31311	0.76155	156.22239	160.96931	58.36824	0.33825	 	1.838240627E7	 	3.20778E-7	 	4275.46201	38.93829	 
930.05	1.0	0.0	7.4513	7.24236	-8.5824	16.4329	22.45978	1.31249	0.76191	156.65915	161.17381	58.5422	0.338	 	2.079755292E7	 	2.82365E-7	 	4083.43414	 	 
930.0	1.0	0.0	7.45133	7.24233	-8.58272	16.43237	22.45904	1.31249	0.76191	156.66324	161.17571	58.54383	0.338	 	2.082161571E7	 	2.82028E-7	 	4081.64413	38.76358	 
925.0	1.0	0.0	7.45417	7.23957	-8.6176	16.37604	22.37921	1.31169	0.76237	157.10403	161.38021	58.71952	0.33775	 	2.361311704E7	 	2.47654E-7	 	3887.9169	38.74544	 
920.0	1.0	0.0	7.457	7.23683	-8.65225	16.32008	22.3004	1.31084	0.76287	157.54131	161.58345	58.89383	0.3375	 	2.68072372E7	 	2.17235E-7	 	3695.06032	38.57132	 
915.0	1.0	0.0	7.45981	7.2341	-8.68667	16.26447	22.22226	1.30993	0.7634	157.97525	161.78551	59.06683	0.33726	 	3.04660372E7	 	1.90345E-7	 	3503.04781	38.4025	 
910.0	1.0	0.0	7.4626	7.23139	-8.72086	16.20919	22.14492	1.30898	0.76396	158.40599	161.98645	59.23857	0.33702	 	3.466175008E7	 	1.666E-7	 	3311.85358	38.23885	 
905.0	1.0	0.0	7.46538	7.2287	-8.75483	16.15423	22.06835	1.30797	0.76455	158.83367	162.18633	59.40912	0.33678	 	3.947854415E7	 	1.45655E-7	 	3121.45389	38.07994	 
900.0	1.0	0.0	7.46814	7.22602	-8.7886	16.09956	21.99335	1.30686	0.76519	159.25844	162.38523	59.57852	0.33654	 	4.501461446E7	 	1.272E-7	 	2931.82575	37.92563	 
898.03	1.0	0.0	7.46923	7.22497	-8.80187	16.07805	21.96371	1.30642	0.76545	159.42528	162.46347	59.64506	0.33645	 	4.742148282E7	 	1.20541E-7	 	2857.2146	 	 
895.0	1.0	0.0	7.47084	7.22341	-8.82155	16.04784	21.91714	1.30581	0.76581	159.67883	162.58353	59.74614	0.33631	 	5.138025482E7	 	1.10966E-7	 	2743.28739	37.70767	 
890.0	1.0	0.0	7.4735	7.22085	-8.85391	15.99807	21.84076	1.30477	0.76642	160.09562	162.78116	59.91231	0.33608	 	5.870954178E7	 	9.66972E-8	 	2555.67544	37.52239	 
