T (C)	Fraction solid (wt)-TOTAL	Fraction liquid (wt)-LIQUID	Density (g/(cm)^3)-TOTAL	Molar volume (cm^3)-TOTAL	Volume change (%)-  	Average expansion coeff. (10e-6 1/K)-  	Thermal conductivity (W/(m*K))-TOTAL	Electrical resistivity (10e-6 Ohm*m)-TOTAL	Electrical conductivity (10e6 1/(Ohm*m))-TOTAL	Young's modulus (GPa)-TOTAL	Bulk modulus (GPa)-TOTAL	Shear modulus(GPa)-TOTAL	Poisson's ratio-TOTAL	Liquid viscosity (mPa s)-  	Total viscosity (mPa s)-  	Liquid diffusivity (10e-9 (m^2)/s)-  	Total diffusivity (10e-9 (m^2)/s)-  	Surface Tension (mN/m)-  	Enthalpy (J/mole)-TOTAL	Specific heat (J/(mole K))-TOTAL	Latent heat (J/mole)-TOTAL
1400.0	0.0	1.0	7.25905	7.91149	0.0	31.92639	29.34849	1.39674	0.71595	0.0	121.62475	0.0	0.5	6.64572	6.64572	1.22879	1.22879	1748.50488	48033.518	 	0.0
1395.0	0.0	1.0	7.26304	7.90714	-0.0550092	31.89144	29.2651	1.39653	0.71606	0.0	121.77035	0.0	0.5	6.71577	6.71577	1.21234	1.21234	1750.87167	47830.897	40.5242	0.0
1390.0	0.0	1.0	7.26703	7.9028	-0.10986	31.85667	29.18172	1.39633	0.71617	0.0	121.91595	0.0	0.5	6.78699	6.78699	1.19603	1.19603	1753.26594	47628.731	40.4332	0.0
1385.0	0.0	1.0	7.27101	7.89847	-0.16456	31.82208	29.09834	1.39612	0.71627	0.0	122.06154	0.0	0.5	6.8594	6.8594	1.17984	1.17984	1755.68813	47427.017	40.3428	0.0
1380.0	0.0	1.0	7.27499	7.89416	-0.21909	31.78767	29.01496	1.39591	0.71638	0.0	122.20714	0.0	0.5	6.93302	6.93302	1.16379	1.16379	1758.13866	47225.753	40.2528	0.0
1375.0	0.0	1.0	7.27895	7.88986	-0.27347	31.75345	28.93157	1.3957	0.71649	0.0	122.35274	0.0	0.5	7.00789	7.00789	1.14788	1.14788	1760.61795	47024.936	40.1634	0.0
1370.0	0.0	1.0	7.28291	7.88557	-0.3277	31.71941	28.84819	1.39548	0.7166	0.0	122.49834	0.0	0.5	7.08403	7.08403	1.1321	1.1321	1763.12638	46824.564	40.0744	0.0
1365.0	0.0	1.0	7.28687	7.88129	-0.38176	31.68556	28.76481	1.39527	0.71671	0.0	122.64394	0.0	0.5	7.16147	7.16147	1.11645	1.11645	1765.66435	46624.636	39.9856	0.0
1360.0	0.0	1.0	7.29081	7.87702	-0.43567	31.65191	28.68143	1.39506	0.71682	0.0	122.78954	0.0	0.5	7.24024	7.24024	1.10093	1.10093	1768.23224	46425.147	39.8978	0.0
1355.0	0.0	1.0	7.29475	7.87277	-0.48942	31.61844	28.59804	1.39484	0.71693	0.0	122.93514	0.0	0.5	7.32037	7.32037	1.08555	1.08555	1770.8304	46226.098	39.8098	0.0
1350.0	0.0	1.0	7.29868	7.86853	-0.54301	31.58517	28.51466	1.39462	0.71704	0.0	123.08074	0.0	0.5	7.40188	7.40188	1.07029	1.07029	1773.45921	46027.484	39.7228	0.0
1345.0	0.0	1.0	7.3026	7.8643	-0.59645	31.5521	28.43128	1.3944	0.71715	0.0	123.22633	0.0	0.5	7.48482	7.48482	1.05517	1.05517	1776.11899	45829.304	39.636	0.0
1340.0	0.0	1.0	7.30652	7.86009	-0.64973	31.51923	28.3479	1.39418	0.71727	0.0	123.37193	0.0	0.5	7.56921	7.56921	1.04019	1.04019	1778.81006	45631.555	39.5498	0.0
1335.0	0.0	1.0	7.31043	7.85588	-0.70285	31.48656	28.26451	1.39396	0.71738	0.0	123.51753	0.0	0.5	7.65508	7.65508	1.02533	1.02533	1781.53275	45434.236	39.4638	0.0
1330.0	0.0	1.0	7.31433	7.85169	-0.75582	31.4541	28.18113	1.39374	0.71749	0.0	123.66313	0.0	0.5	7.74247	7.74247	1.0106	1.0106	1784.28733	45237.345	39.3782	0.0
1328.88	0.0	1.0	7.3152	7.85076	-0.76767	31.44685	28.16244	1.39369	0.71752	0.0	123.69577	0.0	0.5	7.76228	7.76228	1.00732	1.00732	1784.90927	45193.262	39.32717	0.0
1325.0	0.0791309	0.92087	7.33805	7.82624	-1.07755	30.64147	28.40359	1.37851	0.72542	0.00380833	124.52854	0.00127838	0.48952	7.84656	9.86788	0.99409	0.79046	1784.73509	43847.082	347.03679	1193.794
1320.0	0.16871	0.83129	7.36433	7.79839	-1.42954	29.73445	28.67444	1.36122	0.73464	0.0800856	125.52167	0.0271008	0.47755	7.95764	35.12848	0.97715	0.22135	1784.59067	42307.561	307.9042	2537.271
1315.0	0.24595	0.75405	7.38738	7.77406	-1.73713	28.95022	28.90419	1.34616	0.74285	0.36732	126.43096	0.12518	0.46713	8.0714	131.71831	0.96035	0.0588481	1784.52897	40961.449	269.2224	3687.761
1310.0	0.31305	0.68695	7.40778	7.75261	-2.0082	28.26708	29.10017	1.33288	0.75025	0.97744	127.27248	0.3352	0.45799	8.1879	347.93014	0.9437	0.0222084	1784.54289	39774.278	237.4342	4679.726
1305.0	0.37173	0.62827	7.42596	7.73359	-2.24858	27.66907	29.26769	1.32107	0.75696	1.9679	128.05817	0.67862	0.44993	8.30737	721.59397	0.9272	0.0106744	1784.62567	38718.831	211.0894	5540.385
1300.0	0.42337	0.57663	7.44229	7.7166	-2.46338	27.14205	29.411	1.31047	0.76309	3.34945	128.79721	1.16076	0.44279	8.42976	1279.80787	0.91084	0.00599946	1784.77144	37773.402	189.0858	6291.439
1295.0	0.46909	0.53091	7.45703	7.70132	-2.65656	26.6751	29.53325	1.3009	0.7687	5.10111	129.49699	1.77564	0.43642	8.55523	2041.44198	0.89463	0.00374919	1784.97476	36920.526	170.5752	6950.353
1290.0	0.50976	0.49024	7.47043	7.68745	-2.83188	26.25774	29.63698	1.29221	0.77387	7.18326	130.16298	2.5104	0.4307	8.68389	3019.67811	0.87856	0.00252654	1785.23118	36146.035	154.8982	7531.294
1285.0	0.54613	0.45387	7.48267	7.67481	-2.99159	25.88378	29.72449	1.28428	0.77864	9.54942	130.80057	3.34936	0.42556	8.8158	4225.33598	0.86265	0.00179984	1785.53589	35438.342	141.5386	8045.842
1280.0	0.57879	0.42121	7.49392	7.66317	-3.13868	25.54475	29.79742	1.27703	0.78307	12.15026	131.41215	4.27554	0.4209	8.95111	5667.33968	0.84688	0.00133758	1785.88551	34787.907	130.087	8503.54
1275.0	0.60824	0.39176	7.5043	7.65249	-3.27369	25.23949	29.85752	1.27036	0.78718	14.93769	132.00298	5.27208	0.41668	9.08989	7354.63826	0.83127	0.0010274	1786.27534	34186.819	120.2176	8912.294
1270.0	0.63491	0.36509	7.51392	7.64259	-3.39885	24.96162	29.90603	1.2642	0.79101	17.86868	132.57451	6.32373	0.41283	9.23225	9297.04726	0.81581	8.10121E-4	1786.70265	33628.477	111.6684	9278.704
1265.0	0.65914	0.34086	7.52288	7.63334	-3.51574	24.70669	29.94409	1.2585	0.7946	20.90494	133.12848	7.41678	0.4093	9.37831	11505.67921	0.8005	6.52489E-4	1787.16474	33107.341	104.2272	9608.307
1260.0	0.68122	0.31878	7.53126	7.62475	-3.62439	24.47484	29.97289	1.25321	0.79795	24.01305	133.66848	8.5391	0.40607	9.52822	13993.90165	0.78534	5.34728E-4	1787.65764	32618.738	97.7206	9905.775
1255.0	0.70141	0.29859	7.53911	7.61667	-3.7265	24.26117	29.99321	1.24827	0.80111	27.16713	134.19486	9.68122	0.40308	9.68209	16777.98965	0.77034	4.44542E-4	1788.17954	32158.701	92.0074	10175.074
1250.0	0.71994	0.28006	7.5465	7.60904	-3.82291	24.06331	30.00595	1.24366	0.80408	30.34229	134.70887	10.83399	0.40033	9.84	19874.83375	0.7555	3.74047E-4	1788.72833	31723.847	86.9708	10419.582
1245.0	0.73698	0.26302	7.55349	7.60185	-3.91379	23.88089	30.01176	1.23934	0.80688	33.52026	135.21234	11.99057	0.39778	10.00222	23305.99167	0.74081	3.17932E-4	1789.30103	31311.282	82.513	10642.194
1240.0	0.75268	0.24732	7.56011	7.59504	-3.99993	23.71175	30.01133	1.23527	0.80954	36.68297	135.70585	13.1442	0.3954	10.16868	27093.08556	0.72628	2.7259E-4	1789.89601	30918.513	78.5538	10845.399
1235.0	0.76721	0.23279	7.5664	7.58853	-4.08215	23.5534	30.00522	1.23144	0.81206	39.82177	136.19007	14.29154	0.39319	10.33966	31265.06732	0.71191	2.35435E-4	1790.51189	30543.389	75.0248	11031.347
1230.0	0.78067	0.21933	7.57239	7.58235	-4.1603	23.40647	29.99396	1.22782	0.81445	42.92535	136.6665	15.42824	0.39113	10.51533	35851.66064	0.6977	2.04635E-4	1791.14594	30184.043	71.8692	11201.904
1226.09	0.79049	0.20951	7.57689	7.57771	-4.21896	23.2985	29.98157	1.22513	0.81624	45.31439	137.03361	16.30469	0.38961	10.65606	39743.53259	0.68669	1.84116E-4	1791.65437	29913.231	 	11325.223
1225.0	0.79391	0.20609	7.57837	7.57616	-4.23849	23.25821	29.97477	1.22452	0.81665	45.92309	137.16205	16.5298	0.3891	10.70277	41037.72022	0.6832	1.7818E-4	1791.92775	29821.833	72.442	11375.707
1220.0	0.80881	0.19119	7.58494	7.56935	-4.32457	23.08379	29.9413	1.2218	0.81847	48.65093	137.73806	17.53998	0.38686	10.92055	47322.32507	0.66734	1.54001E-4	1793.19886	29413.972	81.5722	11595.543
1215.0	0.82218	0.17782	7.59104	7.56302	-4.40463	22.92697	29.90369	1.21924	0.82019	51.23001	138.2891	18.49692	0.38483	11.14327	54118.88237	0.65181	1.3421E-4	1794.49405	29030.526	76.6892	11791.344
1210.0	0.83418	0.16582	7.59675	7.55708	-4.47969	22.78477	29.8623	1.21682	0.82181	53.67183	138.81789	19.40451	0.38297	11.37129	61464.27738	0.63659	1.17774E-4	1795.8137	28668.125	72.4802	11966.48
1205.0	0.84505	0.15495	7.60211	7.55148	-4.55045	22.65511	29.81768	1.21454	0.82336	55.99258	139.32745	20.26841	0.38128	11.60456	69405.1169	0.62169	1.03947E-4	1797.15765	28323.964	68.8322	12123.75
1204.01	0.84705	0.15295	7.60313	7.55042	-4.56388	22.6312	29.80841	1.2141	0.82366	56.43666	139.42635	20.43384	0.38096	11.65149	71049.61974	0.61877	1.01473E-4	1797.42719	28258.019	 	12152.645
1200.0	0.85631	0.14369	7.60725	7.54601	-4.61961	22.52947	29.77607	1.21212	0.825	58.60221	139.85702	21.24044	0.3795	11.85488	78525.58647	0.60651	9.15635E-5	1799.00889	27972.935	70.2058	12288.261
1195.0	0.86682	0.13318	7.61211	7.54081	-4.68536	22.41375	29.73252	1.20978	0.8266	61.18916	140.37396	22.20512	0.37782	12.11393	88518.24386	0.59152	8.09514E-5	1800.98577	27633.775	67.832	12441.275
1190.0	0.87627	0.12373	7.61669	7.53587	-4.7478	22.30777	29.68579	1.20755	0.82812	63.66784	140.87083	23.13038	0.37628	12.37907	99305.60323	0.57688	7.19121E-5	1802.96611	27311.36	64.483	12577.915
1185.0	0.88481	0.11519	7.62102	7.53118	-4.80705	22.21126	29.63616	1.20544	0.82957	66.05446	141.35012	24.02197	0.37488	12.65052	110953.4644	0.56258	6.41428E-5	1804.94862	27003.455	61.581	12700.413
1180.0	0.89254	0.10746	7.62514	7.5267	-4.86373	22.12229	29.58403	1.20343	0.83096	68.37372	141.81409	24.88886	0.37358	12.92838	123551.0249	0.5486	5.74051E-5	1806.93373	26708.187	59.0536	12810.641
1175.0	0.89957	0.10043	7.62907	7.52239	-4.91812	22.04005	29.52962	1.20149	0.8323	70.64041	142.26454	25.7364	0.37238	13.21308	137185.7558	0.53493	5.15218E-5	1808.92093	26423.979	56.8416	12910.171
1170.0	0.90598	0.0940186	7.63284	7.51824	-4.97058	21.96346	29.4732	1.19964	0.83358	72.87265	142.70307	26.57119	0.37127	13.50472	151963.009	0.52157	4.63511E-5	1810.90999	26149.499	54.896	13000.338
1165.0	0.91186	0.0881425	7.63387	7.51348	-5.03077	21.86061	29.22508	1.20563	0.82944	75.25237	143.31681	27.46164	0.37014	13.80363	167996.7077	0.50851	4.17821E-5	1813.38208	25691.73067	91.55367	13082.274
1160.0	0.91726	0.082739	7.64179	7.50587	-5.12694	21.6373	28.95987	1.21244	0.82478	77.84648	143.95627	28.4379	0.36871	14.11002	188757.1106	0.49574	3.70574E-5	1815.86796	25229.80403	92.38533	13156.949
1155.0	0.92224	0.0777627	7.64936	7.49845	-5.22077	21.4198	28.70647	1.21888	0.82043	80.4252	144.58137	29.40855	0.36738	14.42421	211733.6667	0.48325	3.29208E-5	1818.36842	24782.69041	89.42272	13225.199
1150.0	0.92862	0.071383	7.65725	7.49034	-5.32325	21.17135	28.46544	1.22489	0.8164	83.85197	145.2809	30.69593	0.36585	14.79788	239098.3052	0.46939	2.9051E-5	1820.86274	24295.1038	97.51732	13342.0
1145.0	0.93758	0.0624165	7.66556	7.48123	-5.43843	20.87792	28.25113	1.22985	0.81311	88.98778	146.08835	32.62129	0.36395	15.25284	273077.9241	0.45379	2.53467E-5	1823.32049	23735.78467	111.86383	13538.323
1140.0	0.94484	0.0551621	7.67303	7.47295	-5.54303	20.61765	28.03994	1.23474	0.80988	93.93284	146.8278	34.47472	0.36234	15.71509	309542.332	0.43889	2.2282E-5	1825.79904	23222.46828	102.66328	13696.16
1135.0	0.95081	0.0491896	7.67982	7.46536	-5.63904	20.38423	27.83348	1.2395	0.80678	98.58092	147.5142	36.21756	0.36095	16.185	348945.8601	0.42464	1.9696E-5	1828.29707	22745.14791	95.46407	13825.253
1130.0	0.9558	0.0441971	7.68606	7.45831	-5.72817	20.17221	27.63249	1.24409	0.8038	102.85746	148.15769	37.82254	0.35974	16.66272	391742.6103	0.411	1.7482E-5	1830.81657	22296.78608	89.67237	13932.387
1125.0	0.96567	0.0343273	7.694	7.44969	-5.83715	19.89016	27.4177	1.24936	0.80041	110.49397	148.92419	40.68736	0.35784	17.05145	447419.7352	0.4002	1.52519E-5	1833.37728	21782.05261	102.94669	14112.646
1120.0	0.97481	0.0251897	7.70141	7.44152	-5.9404	19.6253	27.20976	1.25441	0.79719	117.7492	149.6585	43.41534	0.35608	17.45296	509371.0742	0.3896	1.3349E-5	1835.95169	21292.00315	98.00989	14274.733
1115.0	0.9826	0.0173952	7.70814	7.43401	-6.03527	19.38699	27.00971	1.25916	0.79418	123.81281	150.34455	45.70307	0.35453	17.86701	576833.1086	0.3792	1.17455E-5	1838.53883	20835.62685	91.27526	14409.423
1110.0	0.98898	0.0110238	7.71422	7.42717	-6.12169	19.17587	26.81778	1.26361	0.79138	128.60341	150.98862	47.51757	0.35322	18.28651	649711.6713	0.36917	1.03905E-5	1841.14252	20412.73008	84.57935	14516.679
1105.0	0.99409	0.0059131	7.71977	7.42094	-6.20053	18.98927	26.6334	1.26776	0.78879	132.24043	151.58174	48.90162	0.35211	18.70429	728405.0545	0.35962	9.23443E-6	1843.76281	20019.17456	78.7111	14600.411
1100.0	0.99816	0.00183819	7.72491	7.41521	-6.27297	18.82339	26.45597	1.27163	0.78639	135.16423	152.13746	50.01779	0.35116	19.11484	813601.2876	0.35062	8.23746E-6	1846.4018	19650.05931	73.82305	14665.292
1095.0	1.0	0.0	7.72963	7.41026	-6.33553	18.69079	26.29027	1.27498	0.78432	136.86503	152.60285	50.67118	0.35052	 	904567.3282	 	7.38209E-6	 	19561.79463	17.65294	 
1090.0	1.0	0.0	7.73388	7.40619	-6.38698	18.5963	26.1346	1.27789	0.78254	137.5529	153.00109	50.93943	0.35016	 	999862.384	 	6.65411E-6	 	19301.12293	52.13434	 
1085.0	1.0	0.0	7.73805	7.40219	-6.43747	18.50433	25.9847	1.28055	0.78092	138.22699	153.39198	51.20236	0.34981	 	1105986.269	 	5.99356E-6	 	19044.80847	51.26289	 
1080.0	1.0	0.0	7.74215	7.39827	-6.48704	18.41477	25.84018	1.28297	0.77944	138.88809	153.77597	51.46026	0.34947	 	1224243.338	 	5.39467E-6	 	18792.66383	50.42893	 
1075.0	1.0	0.0	7.74619	7.39442	-6.53573	18.32753	25.70071	1.28517	0.77811	139.53694	154.15352	51.71343	0.34914	 	1356104.409	 	4.85212E-6	 	18544.5061	49.63155	 
1070.0	1.0	0.0	7.75015	7.39063	-6.58358	18.24248	25.56595	1.28715	0.77691	140.17424	154.52502	51.96212	0.34881	 	1503229.06	 	4.361E-6	 	18300.15744	48.86973	 
1065.0	1.0	0.0	7.75406	7.38691	-6.63063	18.15952	25.43561	1.28893	0.77584	140.80069	154.89087	52.20661	0.34849	 	1667492.042	 	3.91677E-6	 	18059.44533	48.14242	 
1060.0	1.0	0.0	7.75791	7.38325	-6.67692	18.07856	25.30937	1.29052	0.77488	141.4169	155.25141	52.44714	0.34819	 	1851012.213	 	3.51525E-6	 	17822.20316	47.44843	 
1055.0	1.0	0.0	7.76169	7.37964	-6.72247	17.99949	25.18699	1.29192	0.77404	142.02348	155.60697	52.68393	0.34788	 	2056186.611	 	3.15262E-6	 	17588.27045	46.78654	 
1052.37	1.0	0.0	7.76366	7.37777	-6.74611	17.9587	25.12414	1.29259	0.77364	142.33852	155.7919	52.80693	0.34773	 	2173571.773	 	2.97646E-6	 	17466.63002	 	 
1050.0	1.0	0.0	7.76542	7.3761	-6.76728	17.92239	25.06821	1.29316	0.7733	142.62108	155.95802	52.91725	0.34759	 	2285750.313	 	2.82532E-6	 	17357.47204	46.15968	 
1045.0	1.0	0.0	7.7691	7.37261	-6.81138	17.84712	24.95281	1.29423	0.77266	143.21024	156.30484	53.14728	0.3473	 	2542781.804	 	2.53013E-6	 	17129.66072	45.56226	 
1040.0	1.0	0.0	7.77273	7.36917	-6.85486	17.77346	24.84053	1.29515	0.77211	143.79137	156.64749	53.37421	0.34701	 	2830753.56	 	2.26412E-6	 	16904.71766	44.98861	 
1035.0	1.0	0.0	7.77631	7.36578	-6.89772	17.70134	24.73118	1.29592	0.77165	144.36494	156.98622	53.59821	0.34673	 	3153625.514	 	2.02458E-6	 	16682.50837	44.44186	 
1030.0	1.0	0.0	7.77984	7.36243	-6.94002	17.63066	24.62456	1.29656	0.77127	144.93137	157.32123	53.81944	0.34646	 	3515895.901	 	1.80903E-6	 	16462.90492	43.92069	 
1025.0	1.0	0.0	7.78333	7.35913	-6.98176	17.56136	24.52048	1.29707	0.77097	145.49108	157.65274	54.03808	0.34619	 	3922678.893	 	1.61521E-6	 	16245.7859	43.4238	 
1020.0	1.0	0.0	7.78678	7.35587	-7.02297	17.49335	24.4188	1.29745	0.77074	146.04445	157.98092	54.25426	0.34593	 	4379793.846	 	1.44106E-6	 	16031.03624	42.94993	 
1015.0	1.0	0.0	7.79019	7.35265	-7.06368	17.42658	24.31934	1.29772	0.77058	146.59183	158.30593	54.46813	0.34567	 	4893868.479	 	1.2847E-6	 	15818.54678	42.49789	 
1010.0	1.0	0.0	7.79356	7.34947	-7.10391	17.36097	24.22197	1.29788	0.77049	147.13356	158.62794	54.67981	0.34541	 	5472457.578	 	1.14441E-6	 	15608.21436	42.06648	 
1005.0	1.0	0.0	7.7969	7.34632	-7.14368	17.29647	24.12657	1.29793	0.77046	147.66994	158.94708	54.88943	0.34516	 	6124180.273	 	1.01864E-6	 	15399.94149	41.65457	 
1000.0	1.0	0.0	7.80021	7.34321	-7.18301	17.233	24.03299	1.29789	0.77048	148.20125	159.26349	55.0971	0.34491	 	6858878.997	 	9.05969E-7	 	15193.63611	41.26107	 
995.0	1.0	0.0	7.80348	7.34013	-7.22191	17.17053	23.94114	1.29775	0.77056	148.72776	159.57727	55.30291	0.34466	 	7687803.002	 	8.0511E-7	 	14989.21133	40.88496	 
990.0	1.0	0.0	7.80672	7.33708	-7.26041	17.10898	23.85091	1.29753	0.7707	149.24971	159.88855	55.50697	0.34442	 	8623821.504	 	7.14894E-7	 	14786.58511	40.52524	 
985.0	1.0	0.0	7.80993	7.33407	-7.29853	17.04832	23.76219	1.29722	0.77088	149.76734	160.19741	55.70937	0.34418	 	9681669.934	 	6.34262E-7	 	14585.68011	40.181	 
980.0	1.0	0.0	7.81311	7.33108	-7.33627	16.9885	23.6749	1.29682	0.77111	150.28086	160.50396	55.91018	0.34395	 	1.087823761E7	 	5.62252E-7	 	14386.42335	39.85135	 
975.0	1.0	0.0	7.81626	7.32813	-7.37365	16.92947	23.58896	1.29636	0.77139	150.79047	160.80827	56.1095	0.34372	 	1.223289953E7	 	4.97994E-7	 	14188.746	39.53547	 
970.0	1.0	0.0	7.81939	7.32519	-7.41069	16.87119	23.50428	1.29581	0.77172	151.29634	161.11043	56.30738	0.34349	 	1.376790362E7	 	4.40699E-7	 	13992.58317	39.23257	 
965.0	1.0	0.0	7.82249	7.32229	-7.4474	16.81362	23.4208	1.2952	0.77208	151.79865	161.41051	56.5039	0.34326	 	1.550882346E7	 	3.89656E-7	 	13797.87357	38.94192	 
960.0	1.0	0.0	7.82557	7.31941	-7.48379	16.75672	23.33844	1.29452	0.77248	152.29755	161.70856	56.69912	0.34303	 	1.748508037E7	 	3.44219E-7	 	13604.55946	38.66282	 
955.0	1.0	0.0	7.82862	7.31656	-7.51987	16.70046	23.25715	1.29378	0.77293	152.7932	162.00466	56.89309	0.34281	 	1.973055981E7	 	3.03808E-7	 	13412.58626	38.39464	 
950.0	1.0	0.0	7.83165	7.31373	-7.55565	16.6448	23.17685	1.29298	0.77341	153.28574	162.29886	57.08588	0.34259	 	2.228432508E7	 	2.67896E-7	 	13221.90249	38.13675	 
945.0	1.0	0.0	7.83466	7.31092	-7.59115	16.58971	23.09751	1.29212	0.77392	153.77528	162.5912	57.27752	0.34237	 	2.519145554E7	 	2.36012E-7	 	13032.45951	37.8886	 
940.0	1.0	0.0	7.83764	7.30813	-7.62637	16.53517	23.01907	1.2912	0.77447	154.26195	162.88175	57.46808	0.34215	 	2.850402601E7	 	2.07728E-7	 	12844.21138	37.64963	 
935.0	1.0	0.0	7.84061	7.30537	-7.66132	16.48113	22.94148	1.29023	0.77506	154.74586	163.17053	57.65758	0.34194	 	3.228225249E7	 	1.8266E-7	 	12657.11463	37.41935	 
930.0	1.0	0.0	7.84356	7.30262	-7.69601	16.42758	22.86469	1.2892	0.77567	155.2271	163.45759	57.84608	0.34173	 	3.659584326E7	 	1.60463E-7	 	12471.12821	37.19728	 
925.0	1.0	0.0	7.84649	7.2999	-7.73045	16.37449	22.78867	1.28813	0.77632	155.70579	163.74297	58.0336	0.34151	 	4.152557238E7	 	1.40826E-7	 	12286.21322	36.983	 
920.0	1.0	0.0	7.84939	7.29719	-7.76465	16.32184	22.71337	1.287	0.777	156.182	164.02671	58.2202	0.3413	 	4.716514631E7	 	1.2347E-7	 	12102.33287	36.77607	 
915.0	1.0	0.0	7.85229	7.2945	-7.79861	16.26959	22.63877	1.28583	0.77771	156.65582	164.30883	58.40588	0.3411	 	5.362338205E7	 	1.08144E-7	 	11919.45231	36.57611	 
910.0	1.0	0.0	7.85516	7.29184	-7.83233	16.21774	22.56482	1.28462	0.77844	157.12732	164.58937	58.5907	0.34089	 	6.102679117E7	 	9.4625E-8	 	11737.53851	36.38276	 
905.0	1.0	0.0	7.85802	7.28919	-7.86584	16.16626	22.49149	1.28336	0.7792	157.59659	164.86835	58.77468	0.34068	 	6.952261215E7	 	8.27106E-8	 	11556.56015	36.19567	 
900.0	1.0	0.0	7.86086	7.28655	-7.89913	16.11513	22.41876	1.28206	0.78	158.06368	165.14579	58.95784	0.34048	 	7.928240309E7	 	7.2221E-8	 	11376.4875	36.01453	 
895.0	1.0	0.0	7.86368	7.28394	-7.9322	16.06433	22.34659	1.28072	0.78081	158.52866	165.42174	59.1402	0.34028	 	9.050628355E7	 	6.29951E-8	 	11197.29239	35.83902	 
890.0	1.0	0.0	7.86649	7.28133	-7.96507	16.01384	22.27497	1.27934	0.78166	158.99159	165.69619	59.3218	0.34008	 	1.034279516E8	 	5.48889E-8	 	11018.94802	35.66887	 
885.0	1.0	0.0	7.86928	7.27875	-7.99774	15.96365	22.20385	1.27792	0.78252	159.45252	165.96919	59.50266	0.33988	 	1.18320646E8	 	4.77739E-8	 	10841.42893	35.50382	 
880.0	1.0	0.0	7.87206	7.27618	-8.03021	15.91374	22.13322	1.27646	0.78342	159.91151	166.24074	59.68278	0.33968	 	1.355041952E8	 	4.15355E-8	 	10664.71066	35.34365	 
875.0	1.0	0.0	7.87482	7.27363	-8.06249	15.86409	22.06307	1.27497	0.78433	160.36861	166.51087	59.8622	0.33948	 	1.55353411E8	 	3.60715E-8	 	10488.77005	35.18812	 
