T (C)	Fraction solid (wt)-TOTAL	Fraction liquid (wt)-LIQUID	Density (g/(cm)^3)-TOTAL	Molar volume (cm^3)-TOTAL	Volume change (%)-  	Average expansion coeff. (10e-6 1/K)-  	Thermal conductivity (W/(m*K))-TOTAL	Electrical resistivity (10e-6 Ohm*m)-TOTAL	Electrical conductivity (10e6 1/(Ohm*m))-TOTAL	Young's modulus (GPa)-TOTAL	Bulk modulus (GPa)-TOTAL	Shear modulus(GPa)-TOTAL	Poisson's ratio-TOTAL	Liquid viscosity (mPa s)-  	Total viscosity (mPa s)-  	Liquid diffusivity (10e-9 (m^2)/s)-  	Total diffusivity (10e-9 (m^2)/s)-  	Surface Tension (mN/m)-  	Enthalpy (J/mole)-TOTAL	Specific heat (J/(mole K))-TOTAL	Latent heat (J/mole)-TOTAL
1400.0	0.0	1.0	7.55438	8.17107	0.0	35.32153	30.44184	1.34657	0.74263	0.0	123.39264	0.0	0.5	7.63052	7.63052	1.07021	1.07021	1858.44493	39991.395	 	0.0
1395.0	0.0	1.0	7.55867	8.16643	-0.0567345	35.29228	30.35796	1.34626	0.7428	0.0	123.53159	0.0	0.5	7.71454	7.71454	1.05539	1.05539	1862.63472	39795.1	39.259	0.0
1390.0	0.0	1.0	7.56295	8.16181	-0.11331	35.26327	30.27408	1.34594	0.74297	0.0	123.67055	0.0	0.5	7.8	7.8	1.0407	1.0407	1866.8505	39599.218	39.1764	0.0
1385.0	0.0	1.0	7.56723	8.1572	-0.16973	35.23449	30.1902	1.34562	0.74315	0.0	123.8095	0.0	0.5	7.88693	7.88693	1.02613	1.02613	1871.09201	39403.747	39.0942	0.0
1380.0	0.0	1.0	7.57149	8.1526	-0.22599	35.20594	30.10632	1.3453	0.74333	0.0	123.94846	0.0	0.5	7.97536	7.97536	1.01169	1.01169	1875.35883	39208.685	39.0124	0.0
1375.0	0.0	1.0	7.57575	8.14802	-0.28209	35.17762	30.02244	1.34498	0.7435	0.0	124.08741	0.0	0.5	8.06533	8.06533	0.99738	0.99738	1879.65056	39014.028	38.9314	0.0
1370.0	0.0	1.0	7.58001	8.14344	-0.33804	35.14955	29.93856	1.34466	0.74368	0.0	124.22637	0.0	0.5	8.15688	8.15688	0.9832	0.9832	1883.96678	38819.773	38.851	0.0
1365.0	0.0	1.0	7.58425	8.13889	-0.39382	35.12171	29.85468	1.34433	0.74386	0.0	124.36532	0.0	0.5	8.25003	8.25003	0.96914	0.96914	1888.30708	38625.919	38.7708	0.0
1360.0	0.0	1.0	7.58849	8.13434	-0.44945	35.09412	29.7708	1.34401	0.74404	0.0	124.50428	0.0	0.5	8.34482	8.34482	0.9552	0.9552	1892.67103	38432.463	38.6912	0.0
1355.0	0.0	1.0	7.59272	8.12981	-0.50492	35.06678	29.68692	1.34368	0.74423	0.0	124.64323	0.0	0.5	8.4413	8.4413	0.94139	0.94139	1897.05821	38239.401	38.6124	0.0
1350.0	0.0	1.0	7.59694	8.12529	-0.56023	35.03968	29.60304	1.34335	0.74441	0.0	124.78219	0.0	0.5	8.5395	8.5395	0.92771	0.92771	1901.46817	38046.732	38.5338	0.0
1345.0	0.0	1.0	7.60116	8.12078	-0.61538	35.01284	29.51916	1.34302	0.74459	0.0	124.92114	0.0	0.5	8.63945	8.63945	0.91415	0.91415	1905.90049	37854.452	38.456	0.0
1340.0	0.0	1.0	7.60537	8.11629	-0.67038	34.98625	29.43528	1.34268	0.74478	0.0	125.0601	0.0	0.5	8.74121	8.74121	0.90072	0.90072	1910.35472	37662.56	38.3784	0.0
1335.0	0.0	1.0	7.60957	8.11181	-0.72521	34.95992	29.3514	1.34234	0.74497	0.0	125.19905	0.0	0.5	8.84481	8.84481	0.88741	0.88741	1914.83041	37471.053	38.3014	0.0
1330.0	0.0	1.0	7.61376	8.10734	-0.77989	34.93386	29.26752	1.34201	0.74515	0.0	125.33801	0.0	0.5	8.95029	8.95029	0.87423	0.87423	1919.32714	37279.928	38.225	0.0
1325.0	0.0	1.0	7.61795	8.10289	-0.83441	34.90805	29.18364	1.34167	0.74534	0.0	125.47696	0.0	0.5	9.05771	9.05771	0.86116	0.86116	1923.84445	37089.184	38.1488	0.0
1320.0	0.0	1.0	7.62213	8.09844	-0.88878	34.88251	29.09976	1.34132	0.74553	0.0	125.61591	0.0	0.5	9.1671	9.1671	0.84823	0.84823	1928.3837	36898.816	38.0736	0.0
1315.0	0.0	1.0	7.6263	8.09401	-0.94298	34.85725	29.01588	1.34098	0.74572	0.0	125.75487	0.0	0.5	9.27851	9.27851	0.83541	0.83541	1932.94079	36708.824	37.9984	0.0
1311.61	0.0	1.0	7.62912	8.09101	-0.97969	34.84025	28.95893	1.34074	0.74585	0.0	125.8492	0.0	0.5	9.35532	9.35532	0.82678	0.82678	1936.04547	36580.062	37.93421	0.0
1310.0	0.03144	0.96856	7.64085	8.07862	-1.13141	34.43287	29.04446	1.33544	0.74882	1.01888E-4	126.86927	3.40511E-5	0.4961	9.39748	9.82007	0.82224	0.78685	1936.51346	36066.478	319.86049	452.726
1305.0	0.12315	0.87685	7.67526	8.0424	-1.57471	33.24475	29.29489	1.31984	0.75767	0.02447	129.84311	0.00824117	0.48462	9.53107	15.55172	0.80815	0.49529	1937.91089	34563.736	300.5484	1766.22
1300.0	0.20325	0.79675	7.70586	8.01042	-1.96604	32.20296	29.51103	1.30603	0.76568	0.18482	132.46125	0.0626749	0.47446	9.66794	46.3505	0.79419	0.16565	1939.24578	33235.741	265.599	2905.333
1295.0	0.27357	0.72643	7.73313	7.9822	-2.31138	31.29128	29.69803	1.29368	0.77299	0.61622	134.77974	0.21025	0.46544	9.80811	130.37299	0.78035	0.0587066	1940.51644	32054.852	236.1778	3897.708
1290.0	0.33561	0.66439	7.75758	7.95695	-2.62047	30.48183	29.85958	1.28258	0.77968	1.41535	136.84012	0.48557	0.4574	9.95176	292.70639	0.76663	0.0260648	1941.73166	30998.453	211.2798	4765.956
1285.0	0.3906	0.6094	7.77964	7.93437	-2.89673	29.76546	29.99915	1.27253	0.78584	2.62935	138.68396	0.90655	0.4502	10.09886	552.59218	0.75305	0.0137623	1942.88897	30047.934	190.1038	5528.685
1280.0	0.43955	0.56045	7.79958	7.91403	-3.14568	29.12647	30.11907	1.26339	0.79152	4.26438	140.34051	1.47686	0.44373	10.24951	923.85909	0.7396	0.0082053	1943.99313	29187.894	172.008	6201.295
1275.0	0.48328	0.51672	7.81769	7.89562	-3.37099	28.55461	30.22152	1.25506	0.79678	6.2963	141.83548	2.18941	0.4379	10.40371	1415.88507	0.72629	0.00533669	1945.04635	28405.523	156.4742	6796.592
1270.0	0.52252	0.47748	7.8342	7.87888	-3.57586	28.04085	30.30821	1.24742	0.80165	8.68398	143.19089	3.0308	0.43262	10.56167	2035.29538	0.71312	0.00370056	1946.05108	27690.113	143.082	7325.283
1265.0	0.55783	0.44217	7.84932	7.86361	-3.76278	27.57824	30.38072	1.24041	0.80618	11.37618	144.42508	3.98373	0.42783	10.7234	2786.79577	0.70009	0.00269389	1947.00875	27032.67	131.4886	7796.36
1260.0	0.58971	0.41029	7.86322	7.84952	-3.93512	27.15695	30.44033	1.23396	0.8104	14.32128	145.5526	5.03044	0.42346	10.889	3674.62014	0.6872	0.00203638	1947.9268	26425.605	121.413	8217.41
1255.0	0.61859	0.38141	7.87604	7.83657	-4.0936	26.77529	30.4883	1.228	0.81433	17.46599	146.58798	6.15228	0.41947	11.05868	4702.47593	0.67445	0.00158608	1948.80241	25862.486	112.6238	8594.861
1250.0	0.64482	0.35518	7.88791	7.82464	-4.23967	26.4292	30.52573	1.22248	0.81801	20.76211	147.54203	7.33218	0.41582	11.23245	5874.67745	0.66184	0.00126545	1949.63586	25337.842	104.9288	8934.184
1249.27	0.64837	0.35163	7.88955	7.82297	-4.26008	26.38123	30.52999	1.22173	0.81851	21.2425	147.67278	7.50447	0.41532	11.25809	6055.29862	0.66002	0.00122712	1949.75869	25265.329	 	8979.765
1245.0	0.67021	0.32979	7.89963	7.81287	-4.38365	26.08681	30.56287	1.21699	0.8217	24.31459	148.4575	8.60821	0.41229	11.35916	7234.43884	0.65231	0.00102423	1947.62779	24814.237	104.721	9272.813
1240.0	0.69356	0.30644	7.91063	7.80186	-4.51841	25.77061	30.59171	1.21184	0.82519	27.97982	149.30406	9.92881	0.40902	11.48264	8762.20772	0.64317	8.42859E-4	1945.14503	24319.277	98.992	9583.138
1235.92	0.71091	0.28909	7.91902	7.7935	-4.62075	25.53469	30.60764	1.20794	0.82786	30.97974	149.94275	11.0125	0.40657	11.58764	10125.65803	0.63562	7.27399E-4	1943.1232	23940.313	 	9811.64
1235.0	0.71518	0.28482	7.92102	7.7915	-4.6452	25.47689	30.61135	1.20706	0.82846	31.75503	150.10034	11.29296	0.40597	11.60965	10478.95914	0.63403	7.02446E-4	1943.16922	23847.727	94.31	9870.394
1230.0	0.73736	0.26264	7.93159	7.78091	-4.7748	25.17189	30.62754	1.20242	0.83166	36.03252	150.91767	12.84309	0.4028	11.73449	12530.24335	0.62521	5.85504E-4	1943.47723	23361.048	97.3358	10173.116
1225.0	0.75717	0.24283	7.94129	7.77121	-4.8936	24.89869	30.6341	1.19816	0.83461	40.2346	151.6603	14.3701	0.39994	11.86529	14765.44253	0.61626	4.95217E-4	1943.78881	22910.314	90.1468	10440.23
1220.0	0.77493	0.22507	7.95026	7.76221	-5.00369	24.65102	30.63216	1.19424	0.83735	44.33608	152.33962	15.86435	0.39735	12.00228	17192.20308	0.60719	4.23895E-4	1944.10663	22490.199	84.023	10677.059
1215.0	0.79092	0.20908	7.95859	7.75384	-5.10617	24.42571	30.62279	1.19061	0.83991	48.32174	152.96522	17.31979	0.39499	12.14532	19823.24002	0.59803	3.66403E-4	1944.42588	22096.328	78.7742	10887.977
1210.14	0.805	0.195	7.96615	7.74622	-5.19934	24.22563	30.60727	1.18732	0.84223	52.06733	153.52801	18.69048	0.39288	12.29006	22585.45417	0.58906	3.20542E-4	1944.73438	21735.428	 	11071.423
1210.0	0.80556	0.19444	7.96646	7.74589	-5.20339	24.21548	30.6081	1.18718	0.84234	52.22286	153.55163	18.74745	0.3928	12.29668	22687.87811	0.58869	3.19064E-4	1944.70277	21722.424	74.7808	11079.258
1205.0	0.82399	0.17601	7.97672	7.73535	-5.33243	23.90046	30.65532	1.18135	0.84649	57.61801	154.34557	20.726	0.38999	12.52911	26473.69409	0.57582	2.72515E-4	1943.64302	21279.512	88.5824	11339.875
1200.0	0.83989	0.16011	7.98379	7.7239	-5.47255	23.54674	30.57581	1.18042	0.84716	62.67651	154.8396	22.58998	0.38726	12.76712	30500.66753	0.56317	2.35735E-4	1947.83922	20777.92913	100.31657	11562.215
1195.0	0.85372	0.14628	8.00189	7.71378	-5.59641	23.24306	30.2845	1.18773	0.84195	67.7422	155.07159	24.47267	0.38404	13.01086	35606.91349	0.55075	2.01244E-4	1952.03519	20224.12086	110.76165	11753.52
1190.0	0.86585	0.13415	8.01863	7.70417	-5.71397	22.95746	29.98994	1.19531	0.83661	68.74566	155.25043	24.88801	0.3811	13.26049	41238.88804	0.53854	1.73168E-4	1956.2284	19702.15109	104.39395	11919.382
1185.0	0.87562	0.12438	8.03425	7.69487	-5.82779	22.68167	29.67092	1.20403	0.83054	72.12822	155.36346	26.16222	0.37848	13.50877	47292.55987	0.52683	1.50486E-4	1960.44142	19195.2778	101.37466	12076.257
1180.0	0.8842	0.1158	8.0487	7.68593	-5.93726	22.41791	29.35691	1.21274	0.82458	75.25884	155.4454	27.34541	0.37608	13.76197	53955.40443	0.51537	1.3145E-4	1964.65427	18706.29907	97.79575	12221.001
1175.0	0.89191	0.10809	8.06199	7.67734	-6.04236	22.16636	29.05667	1.22105	0.81897	78.20165	155.50781	28.4606	0.37386	14.02275	61327.52867	0.50404	1.15251E-4	1968.867	18237.46726	93.76636	12351.481
1170.0	0.8989	0.1011	8.07423	7.66911	-6.14313	21.92704	28.77248	1.22885	0.81377	80.96942	155.55591	29.51197	0.37181	14.29121	69483.3991	0.49287	1.01372E-4	1973.0734	17786.64192	90.16507	12469.656
1165.0	0.90524	0.0947596	8.08551	7.66117	-6.2402	21.69803	28.50278	1.23618	0.80894	83.58716	155.594	30.50846	0.3699	14.56753	78514.56444	0.48184	8.94006E-5	1977.27525	17352.02437	86.92351	12577.147
1160.0	0.91104	0.0889577	8.09591	7.65352	-6.33389	21.47838	28.24653	1.24306	0.80447	86.07306	155.62518	31.45651	0.36813	14.8521	88519.08398	0.47097	7.90208E-5	1981.47172	16932.08572	83.98773	12675.308
1155.0	0.91635	0.0836465	8.10552	7.64611	-6.42456	21.26699	28.00273	1.24951	0.80031	88.44318	155.65209	32.36184	0.36647	15.14521	99605.55248	0.46024	6.99805E-5	1985.66424	16525.51483	81.31418	12765.282
1150.0	0.92125	0.078755	8.1144	7.63894	-6.51229	21.06367	27.77048	1.25555	0.79646	90.71096	155.67684	33.22924	0.36493	15.44719	111894.9827	0.44966	6.20764E-5	1989.84833	16131.17645	78.86768	12848.037
1145.0	0.92577	0.0742347	8.12262	7.63198	-6.59747	20.86724	27.54888	1.2612	0.79289	92.8921	155.70076	34.06443	0.36348	15.7581	125522.4222	0.43924	5.51426E-5	1994.02716	15748.07912	76.61947	12924.402
1140.0	0.92996	0.0700435	8.13024	7.62522	-6.68026	20.67729	27.33711	1.26649	0.78958	94.99852	155.72528	34.87171	0.36211	16.07866	140637.4026	0.42897	4.90427E-5	1998.19946	15375.35023	74.54578	12995.093
1135.0	0.93386	0.066144	8.1373	7.61865	-6.76068	20.49373	27.13444	1.27144	0.78651	93.96901	155.70019	34.52628	0.36083	16.40858	157406.7736	0.41886	4.36629E-5	2002.36067	15012.21298	72.62745	13060.732
1130.0	0.9375	0.0625046	8.14387	7.61224	-6.83911	20.31539	26.94015	1.27606	0.78366	96.52603	155.72847	35.49733	0.35962	16.74856	176015.3559	0.4089	3.89081E-5	2006.51729	14657.97239	70.84812	13121.861
1125.0	0.9409	0.0590986	8.14997	7.606	-6.9155	20.14252	26.75363	1.28037	0.78102	98.93637	155.76006	36.41432	0.35848	17.09863	196671.8098	0.3991	3.46975E-5	2010.66217	14312.00423	69.19363	13178.961
1120.0	0.94491	0.055092	8.15589	7.59945	-6.9956	19.95513	26.57451	1.2844	0.77858	101.73059	155.83176	37.47637	0.35726	17.47563	220368.644	0.38909	3.08557E-5	2014.71891	13956.56105	71.08864	13249.633
1115.0	0.95019	0.0498078	8.16179	7.59222	-7.08405	19.73677	26.4035	1.28807	0.77635	105.40496	155.97608	38.87033	0.35585	17.89758	248305.4509	0.37855	2.72858E-5	2018.59496	13576.98609	75.91499	13348.397
1110.0	0.95478	0.0452229	8.16707	7.58541	-7.16749	19.53405	26.23912	1.29148	0.77431	108.77868	156.10315	40.15207	0.35458	18.32931	278999.7541	0.36831	2.41965E-5	2022.46946	13215.00427	72.39636	13433.391
1105.0	0.95879	0.0412071	8.17186	7.57891	-7.24693	19.34355	26.08012	1.29465	0.77241	111.91702	156.21723	41.34571	0.35343	18.77204	312793.961	0.35832	2.15043E-5	2026.35256	12867.89212	69.42243	13507.205
1100.0	0.96234	0.0376611	8.1762	7.57272	-7.32275	19.16417	25.92609	1.29762	0.77064	114.86227	156.32216	42.46688	0.35237	19.22533	350066.612	0.3486	1.91449E-5	2030.23055	12533.53178	66.87207	13571.831
1095.0	0.96549	0.0345073	8.18017	7.56677	-7.39557	18.99382	25.77669	1.30039	0.769	117.64141	156.4203	43.52563	0.3514	19.69006	391230.0929	0.33914	1.70682E-5	2034.11086	12210.24689	64.65698	13628.819
1090.0	0.96832	0.0316839	8.18381	7.56104	-7.46566	18.83166	25.63165	1.30297	0.76748	120.27084	156.51388	44.52806	0.35051	20.16605	436744.5615	0.32992	1.52336E-5	2037.98557	11896.68963	62.71145	13679.396
1085.0	0.97086	0.0291422	8.18717	7.5555	-7.53345	18.67623	25.49065	1.30537	0.76607	122.75958	156.60438	45.47757	0.34967	20.6544	487116.3658	0.32094	1.36082E-5	2041.86188	11591.75959	60.98601	13724.545
1080.0	0.97316	0.026842	8.19029	7.55013	-7.59917	18.52686	25.35349	1.3076	0.76476	125.11323	156.69306	46.37626	0.34889	21.15562	542912.6148	0.31218	1.21647E-5	2045.73699	11294.5468	59.44256	13765.059
1075.0	0.97525	0.0247497	8.19318	7.54492	-7.66296	18.38306	25.21718	1.30981	0.76347	127.33335	156.78095	47.22473	0.34816	21.66941	604760.4887	0.30365	1.08803E-5	2049.6069	11004.29168	58.05102	13801.589
1070.0	0.97716	0.0228391	8.19589	7.53984	-7.72507	18.24402	25.08687	1.31173	0.76235	129.42382	156.86876	48.02446	0.34748	22.19695	673366.2865	0.29534	9.73554E-6	2053.47459	10720.34995	56.78835	13834.67
1065.0	0.97891	0.0210864	8.19842	7.5349	-7.78564	18.10932	24.95145	1.31394	0.76107	131.38699	156.95705	48.77632	0.34683	22.73822	749515.0722	0.28723	8.71387E-6	2057.33814	10442.17166	55.63566	13864.749
1060.0	0.98053	0.0194684	8.20081	7.53006	-7.84478	17.97861	24.82672	1.31561	0.76011	133.22925	157.04663	49.48272	0.34622	23.29118	834093.9439	0.27937	7.80101E-6	2061.19665	10169.20512	54.59331	13892.275
1055.0	0.98206	0.0179358	8.20311	7.52533	-7.90275	17.85094	24.70493	1.31713	0.75922	134.98051	157.13932	50.15495	0.34564	23.84628	928179.5469	0.27184	6.98396E-6	2065.05701	9900.50386	53.74025	13918.097
1050.0	0.98348	0.0165163	8.20528	7.52069	-7.95949	17.72662	24.58586	1.31853	0.75842	136.61528	157.23351	50.78335	0.34508	24.41656	1032787.959	0.26449	6.25295E-6	2068.91124	9636.3766	52.82545	13941.812
1045.0	0.9848	0.0151989	8.20735	7.51615	-8.01509	17.60532	24.46934	1.3198	0.75769	138.14085	157.32945	51.37066	0.34455	25.00278	1149163.466	0.25731	5.59847E-6	2072.75892	9376.49421	51.97648	13963.658
1040.0	0.98603	0.0139716	8.20933	7.51169	-8.06965	17.48678	24.35526	1.32095	0.75703	139.56528	157.42734	51.91988	0.34404	25.60518	1278702.398	0.25031	5.01224E-6	2076.60124	9120.56269	51.1863	13983.838
1035.0	0.98717	0.0128257	8.21122	7.50731	-8.1232	17.37085	24.24346	1.32199	0.75643	140.89467	157.52724	52.43328	0.34356	26.22455	1422964.514	0.24346	4.48694E-6	2080.43661	8868.32005	50.44853	14002.531
1030.0	0.98825	0.0117535	8.21304	7.50301	-8.17582	17.25733	24.13385	1.32292	0.7559	142.13863	157.62936	52.91445	0.3431	26.86129	1583723.33	0.23679	4.01607E-6	2084.26213	8619.53134	49.75774	14019.888
1025.0	0.98925	0.0107474	8.2148	7.49878	-8.22758	17.14592	24.02629	1.32374	0.75543	143.30467	157.73368	53.36621	0.34265	27.51605	1762963.395	0.23026	3.59392E-6	2088.08206	8373.98453	49.10936	14036.044
1020.0	0.9902	0.00980176	8.2165	7.49462	-8.27851	17.0366	23.92093	1.32445	0.75503	144.39964	157.84031	53.79111	0.34223	28.1898	1962918.326	0.22389	3.21539E-6	2091.8922	8131.48461	48.49998	14051.114
1015.0	0.99109	0.00891121	8.21814	7.49053	-8.32866	16.92919	23.81707	1.32509	0.75467	145.43082	157.94921	54.19188	0.34181	28.88317	2186111.853	0.21767	2.87595E-6	2095.69498	7891.85629	47.92566	14065.203
1010.0	0.99193	0.00807024	8.21975	7.48649	-8.37809	16.82349	23.71494	1.32563	0.75436	146.40537	158.06044	54.57119	0.34142	29.59626	2435398.435	0.21161	2.57154E-6	2099.48996	7654.93809	47.38364	14078.401
1005.0	0.99273	0.00727445	8.22131	7.4825	-8.42683	16.71939	23.61448	1.32608	0.7541	147.3295	158.174	54.93139	0.34103	30.33029	2713998.294	0.20568	2.29858E-6	2103.27572	7420.58026	46.87157	14090.788
1000.0	0.99348	0.00652167	8.22284	7.47858	-8.4749	16.61685	23.5156	1.32645	0.75389	148.20829	158.28982	55.27438	0.34066	31.08656	3025544.591	0.19989	2.05382E-6	2107.05001	7188.64569	46.38691	14102.437
995.0	0.99419	0.00580748	8.22434	7.4747	-8.52234	16.51572	23.41822	1.32673	0.75373	149.04691	158.40796	55.60209	0.3403	31.86454	3374151.149	0.19424	1.83439E-6	2110.81562	6959.00984	45.92717	14113.411
990.0	0.99487	0.00512859	8.22582	7.47087	-8.5692	16.41585	23.32227	1.32694	0.75362	149.85009	158.52833	55.91631	0.33995	32.66604	3764480.483	0.18873	1.63771E-6	2114.57427	6731.55367	45.49123	14123.768
985.0	0.99552	0.00448169	8.22727	7.46709	-8.61547	16.31728	23.22771	1.32706	0.75354	150.62148	158.65095	56.2184	0.33961	33.49183	4201803.89	0.18335	1.46145E-6	2118.31835	6506.16756	45.07722	14133.559
980.0	0.99613	0.0038657	8.22871	7.46335	-8.66122	16.21975	23.13448	1.32712	0.75351	151.36623	158.77576	56.51033	0.33928	34.34226	4692142.088	0.1781	1.30352E-6	2122.05738	6282.75224	44.68306	14142.829
975.0	0.99672	0.00327842	8.23012	7.45966	-8.70645	16.12331	23.04249	1.3271	0.75352	152.08599	158.90275	56.79269	0.33896	35.21868	5242254.221	0.17297	1.16208E-6	2125.78296	6061.2107	44.30831	14151.622
970.0	0.99728	0.00271653	8.23153	7.456	-8.75117	16.02788	22.95173	1.32701	0.75357	152.78377	159.0318	57.06662	0.33864	36.12203	5859859.602	0.16797	1.03544E-6	2129.49962	5841.45513	43.95111	14159.974
965.0	0.9979	0.00209579	8.23291	7.4524	-8.79519	15.93427	22.86283	1.32681	0.75369	153.46236	159.16299	57.33364	0.33833	37.05964	6555329.434	0.16306	9.21861E-7	2133.22163	5622.17182	43.85666	14169.15
960.0	0.99899	0.00101368	8.23422	7.44896	-8.83739	15.84711	22.77931	1.3263	0.75398	154.21653	159.29672	57.63127	0.33796	38.06263	7347556.735	0.15813	8.19143E-7	2137.05646	5397.42912	44.94854	14185.035
955.0	1.0	0.0	8.23552	7.44555	-8.8791	15.76104	22.69598	1.32577	0.75428	155.34728	159.43203	58.06926	0.3376	 	8239051.174	 	7.27547E-7	 	5174.98327	44.48917	14199.829
950.0	1.0	0.0	8.23864	7.44273	-8.91358	15.70388	22.61117	1.32533	0.75453	155.67414	159.52191	58.20232	0.33735	 	9319276.699	 	6.40596E-7	 	5598.328	-84.66895	 
945.0	1.0	0.0	8.24174	7.43993	-8.94781	15.64716	22.52752	1.32481	0.75483	156.00008	159.61441	58.33491	0.33711	 	1.055239256E7	 	5.63426E-7	 	5422.15169	35.23526	 
940.0	1.0	0.0	8.24482	7.43716	-8.98178	15.59088	22.44497	1.32422	0.75516	156.32521	159.70946	58.46709	0.33687	 	1.196158961E7	 	4.95008E-7	 	5246.87391	35.05556	 
935.0	1.0	0.0	8.24787	7.4344	-9.01551	15.53499	22.36348	1.32357	0.75553	156.64961	159.80699	58.59888	0.33663	 	1.357380716E7	 	4.34416E-7	 	5072.46262	34.88226	 
930.0	1.0	0.0	8.25091	7.43167	-9.049	15.47948	22.28301	1.32285	0.75594	156.97336	159.90693	58.73033	0.33639	 	1.542037729E7	 	3.80813E-7	 	4898.88717	34.71509	 
925.0	1.0	0.0	8.25393	7.42895	-9.08226	15.42433	22.20352	1.32207	0.75639	157.29655	160.00922	58.86147	0.33616	 	1.75377847E7	 	3.33444E-7	 	4726.11817	34.5538	 
920.0	1.0	0.0	8.25693	7.42625	-9.1153	15.36951	22.12498	1.32123	0.75687	157.61924	160.1138	58.99233	0.33593	 	1.996856418E7	 	2.91632E-7	 	4554.12754	34.39813	 
915.0	1.0	0.0	8.25991	7.42357	-9.14813	15.315	22.04734	1.32033	0.75739	157.9415	160.22059	59.12294	0.3357	 	2.276236654E7	 	2.54765E-7	 	4382.8883	34.24785	 
910.0	1.0	0.0	8.26288	7.4209	-9.18075	15.26077	21.97059	1.31936	0.75794	158.2634	160.32955	59.25333	0.33548	 	2.597721955E7	 	2.22297E-7	 	4212.37467	34.10273	 
