T (C)	Fraction solid (wt)-TOTAL	Fraction liquid (wt)-LIQUID	Density (g/(cm)^3)-TOTAL	Molar volume (cm^3)-TOTAL	Volume change (%)-  	Average expansion coeff. (10e-6 1/K)-  	Thermal conductivity (W/(m*K))-TOTAL	Electrical resistivity (10e-6 Ohm*m)-TOTAL	Electrical conductivity (10e6 1/(Ohm*m))-TOTAL	Young's modulus (GPa)-TOTAL	Bulk modulus (GPa)-TOTAL	Shear modulus(GPa)-TOTAL	Poisson's ratio-TOTAL	Liquid viscosity (mPa s)-  	Total viscosity (mPa s)-  	Liquid diffusivity (10e-9 (m^2)/s)-  	Total diffusivity (10e-9 (m^2)/s)-  	Surface Tension (mN/m)-  	Enthalpy (J/mole)-TOTAL	Specific heat (J/(mole K))-TOTAL	Latent heat (J/mole)-TOTAL
1400.0	0.0	1.0	7.05358	7.91612	0.0	33.42068	29.5201	1.38862	0.72014	0.0	121.99621	0.0	0.5	6.38387	6.38387	1.2792	1.2792	1751.20446	45442.669	 	0.0
1395.0	0.0	1.0	7.05758	7.91163	-0.0567217	33.38562	29.43851	1.38831	0.7203	0.0	122.14129	0.0	0.5	6.45106	6.45106	1.26209	1.26209	1753.5004	45240.406	40.4526	0.0
1390.0	0.0	1.0	7.06158	7.90715	-0.11328	33.35075	29.35691	1.38799	0.72047	0.0	122.28637	0.0	0.5	6.51938	6.51938	1.24512	1.24512	1755.81277	45038.596	40.362	0.0
1385.0	0.0	1.0	7.06557	7.90269	-0.16968	33.31607	29.27532	1.38768	0.72063	0.0	122.43145	0.0	0.5	6.58883	6.58883	1.22829	1.22829	1758.14153	44837.236	40.272	0.0
1380.0	0.0	1.0	7.06955	7.89823	-0.22592	33.2816	29.19373	1.38736	0.72079	0.0	122.57652	0.0	0.5	6.65945	6.65945	1.2116	1.2116	1760.48656	44636.324	40.1824	0.0
1375.0	0.0	1.0	7.07353	7.8938	-0.28199	33.24731	29.11214	1.38704	0.72096	0.0	122.7216	0.0	0.5	6.73127	6.73127	1.19505	1.19505	1762.84773	44435.857	40.0934	0.0
1370.0	0.0	1.0	7.0775	7.88937	-0.33791	33.21323	29.03054	1.38672	0.72113	0.0	122.86668	0.0	0.5	6.8043	6.8043	1.17864	1.17864	1765.22491	44235.834	40.0046	0.0
1365.0	0.0	1.0	7.08146	7.88496	-0.39366	33.17936	28.94895	1.38639	0.7213	0.0	123.01176	0.0	0.5	6.87858	6.87858	1.16236	1.16236	1767.61795	44036.25	39.9168	0.0
1360.0	0.0	1.0	7.08541	7.88055	-0.44925	33.14568	28.86736	1.38607	0.72146	0.0	123.15684	0.0	0.5	6.95414	6.95414	1.14622	1.14622	1770.02666	43837.104	39.8292	0.0
1355.0	0.0	1.0	7.08936	7.87617	-0.50468	33.11222	28.78576	1.38574	0.72163	0.0	123.30192	0.0	0.5	7.03099	7.03099	1.13022	1.13022	1772.45087	43638.394	39.742	0.0
1350.0	0.0	1.0	7.0933	7.87179	-0.55995	33.07897	28.70417	1.38541	0.72181	0.0	123.447	0.0	0.5	7.10917	7.10917	1.11436	1.11436	1774.89037	43440.116	39.6556	0.0
1345.0	0.0	1.0	7.09723	7.86743	-0.61505	33.04592	28.62258	1.38508	0.72198	0.0	123.59208	0.0	0.5	7.18872	7.18872	1.09864	1.09864	1777.34494	43242.269	39.5694	0.0
1344.22	0.0	1.0	7.09785	7.86675	-0.62364	33.04078	28.60984	1.38503	0.722	0.0	123.61473	0.0	0.5	7.20126	7.20126	1.09619	1.09619	1777.72956	43211.414	39.5207	0.0010
1340.0	0.12285	0.87715	7.1354	7.82541	-1.1459	31.64044	28.99082	1.36327	0.73353	0.0205912	124.41056	0.00693663	0.48424	7.28697	13.03646	1.08047	0.60395	1776.97806	41274.814	458.98935	1770.035
1335.0	0.24307	0.75693	7.17283	7.78452	-1.66239	30.26582	29.36537	1.34171	0.74532	0.32361	125.26127	0.11018	0.46859	7.39066	82.26702	1.06201	0.0954086	1776.20106	39359.301	383.1026	3488.554
1330.0	0.34095	0.65905	7.20393	7.75092	-2.0868	29.14826	29.67045	1.32378	0.75541	1.2791	126.03388	0.43935	0.45568	7.49671	306.21761	1.04373	0.0255523	1775.54077	37776.921	316.476	4874.364
1325.0	0.4216	0.5784	7.23007	7.72282	-2.44189	28.22436	29.92021	1.30864	0.76415	3.04408	126.74463	1.05338	0.44491	7.60523	740.36952	1.02563	0.0105355	1774.99326	36451.168	265.1506	6003.967
1320.0	0.4888	0.5112	7.25231	7.69907	-2.74191	27.45463	30.12525	1.29566	0.77181	5.58351	127.40826	1.94433	0.43585	7.71617	1402.88958	1.00772	0.00554268	1774.55363	35325.563	225.121	6933.841
1315.0	0.5453	0.4547	7.27142	7.67874	-2.99872	26.80596	30.29262	1.28446	0.77854	8.76397	128.03379	3.0683	0.42815	7.82977	2290.04371	0.98999	0.00338481	1774.2154	34357.837	193.5452	7706.252
1310.0	0.59322	0.40678	7.28799	7.66111	-3.22135	26.25313	30.4284	1.2747	0.7845	12.42167	128.62836	4.36905	0.42155	7.94593	3388.46055	0.97244	0.00228038	1773.97444	33515.965	168.3744	8353.223
1305.0	0.6342	0.3658	7.3025	7.64573	-3.41568	25.77985	30.53713	1.26615	0.78979	16.398	129.19793	5.79081	0.41586	8.06487	4682.29791	0.95507	0.00164504	1773.82506	32775.395	148.114	8899.304
1300.0	0.66948	0.33052	7.3153	7.63208	-3.58807	25.36814	30.62279	1.25861	0.79453	20.55926	129.74529	7.28578	0.41092	8.18656	6157.48981	0.9379	0.00124696	1773.76356	32117.106	131.6578	9363.513
1295.0	0.70003	0.29997	7.3267	7.61996	-3.74125	25.01052	30.68874	1.25191	0.79878	24.79618	130.27543	8.81427	0.40659	8.31111	7803.01708	0.92091	9.80871E-4	1773.78405	31526.215	118.1782	9760.731
1290.0	0.72667	0.27333	7.33691	7.60906	-3.87891	24.69663	30.7377	1.24593	0.80261	29.02825	130.7905	10.34665	0.40278	8.43854	9612.07306	0.90411	7.93725E-4	1773.88269	30990.968	107.0494	10102.71
1285.0	0.75	0.25	7.34612	7.59921	-4.00329	24.42024	30.77191	1.24057	0.80608	33.19548	131.29285	11.86048	0.39942	8.56903	11581.37878	0.88749	6.56653E-4	1774.0548	30502.0	97.7936	10398.813
1280.0	0.77057	0.22943	7.35449	7.59022	-4.1169	24.17417	30.79343	1.23572	0.80924	37.25603	131.78351	13.33987	0.39642	8.70255	13710.83533	0.87107	5.52887E-4	1774.29729	30051.793	90.0414	10656.555
1275.0	0.78876	0.21124	7.36214	7.58197	-4.2211	23.95469	30.8039	1.23133	0.81213	41.18481	132.2645	14.77501	0.39373	8.83926	16004.81222	0.85484	4.72116E-4	1774.60586	29634.261	83.5064	10882.02
1270.0	0.80493	0.19507	7.36918	7.57434	-4.31745	23.75737	30.80478	1.22732	0.81479	44.96366	132.73648	16.15866	0.39132	8.97913	18468.98946	0.8388	4.07804E-4	1774.97755	29244.446	77.963	11080.165
1265.0	0.81937	0.18063	7.37569	7.56726	-4.40697	23.57933	30.79722	1.22364	0.81723	48.58419	133.20055	17.48719	0.38914	9.12229	21112.37483	0.82297	3.55589E-4	1775.40897	28878.279	73.2334	11255.056
1260.0	0.83232	0.16768	7.38173	7.56065	-4.49045	23.41842	30.78226	1.22025	0.8195	52.04081	133.6576	18.75805	0.38716	9.26883	23945.33584	0.80732	3.125E-4	1775.89685	28532.401	69.1756	11410.049
1255.0	0.84395	0.15605	7.38738	7.55444	-4.56891	23.27168	30.76081	1.21712	0.82161	55.33784	134.10808	19.97243	0.38536	9.41885	26982.52791	0.79187	2.7642E-4	1776.43897	28204.022	65.6758	11547.933
1250.0	0.85446	0.14554	7.39268	7.54857	-4.64302	23.13721	30.73362	1.21421	0.82358	58.47735	134.55247	21.13071	0.38371	9.57237	30238.77822	0.77662	2.45847E-4	1777.03303	27890.811	62.6422	11671.038
1245.0	0.86398	0.13602	7.39767	7.54302	-4.71315	23.01402	30.70138	1.2115	0.82542	61.46725	134.99162	22.23548	0.38219	9.72953	33733.24601	0.76157	2.19656E-4	1777.67585	27590.809	60.0004	11781.317
1240.0	0.87261	0.12739	7.40239	7.53774	-4.77988	22.9004	30.66463	1.20896	0.82716	64.31202	135.42567	23.28813	0.38079	9.89041	37484.60298	0.74671	1.97022E-4	1778.36586	27302.365	57.6888	11880.423
1235.0	0.8805	0.1195	7.40688	7.53269	-4.84366	22.79511	30.62385	1.20657	0.8288	67.01865	135.8548	24.29099	0.3795	10.05503	41514.66861	0.73206	1.77309E-4	1779.10124	27024.077	55.6576	11969.754
1230.0	0.88769	0.11231	7.41115	7.52785	-4.90484	22.69713	30.57951	1.20431	0.83035	69.59922	136.27964	25.24834	0.37829	10.22359	45850.56924	0.71761	1.60009E-4	1779.8799	26754.75	53.8654	12050.503
1225.0	0.89429	0.10571	7.41523	7.5232	-4.96352	22.60622	30.53195	1.20217	0.83183	72.05628	136.70034	26.16094	0.37717	10.39614	50516.56257	0.70335	1.44747E-4	1780.69956	26493.362	52.2776	12123.691
1220.0	0.90034	0.0996587	7.41915	7.51873	-5.02002	22.52147	30.48144	1.20015	0.83323	74.39593	137.11702	27.03089	0.37613	10.57277	55541.00645	0.68929	1.31213E-4	1781.55898	26239.035	50.8654	12190.193
1215.0	0.90592	0.0940827	7.42291	7.5144	-5.07473	22.44174	30.42841	1.19821	0.83458	76.63465	137.53011	27.86418	0.37515	10.75363	60962.5907	0.67543	1.19143E-4	1782.45675	25991.009	49.6052	12250.767
1212.5	0.90854	0.0914649	7.42474	7.5123	-5.10125	22.40425	30.40088	1.19728	0.83522	77.7066	137.73513	28.26348	0.37468	10.84561	63824.46444	0.66857	1.1361E-4	1782.91796	25869.324	 	12278.893
1210.0	0.91148	0.0885207	7.42654	7.51014	-5.12847	22.3644	30.37471	1.1963	0.83591	78.91962	137.95018	28.71554	0.37416	10.94285	66931.59143	0.66152	1.08154E-4	1783.75768	25742.376	49.7266	12312.319
1205.0	0.91701	0.0829945	7.43004	7.50593	-5.18173	22.28799	30.32045	1.1944	0.83724	81.25695	138.37551	29.58731	0.37317	11.14012	73509.61848	0.64761	9.81434E-5	1785.44885	25493.399	49.7954	12374.584
1200.0	0.92207	0.0779319	7.4334	7.50185	-5.23324	22.21654	30.26372	1.19259	0.83851	83.47094	138.7954	30.41391	0.37225	11.34138	80602.00157	0.63397	8.92047E-5	1787.14944	25250.744	48.531	12430.894
1195.0	0.92671	0.0732933	7.43665	7.49788	-5.28331	22.14917	30.20474	1.19086	0.83973	85.57283	139.21009	31.19943	0.37138	11.54686	88257.80662	0.62057	8.11903E-5	1788.86001	25013.693	47.4102	12481.967
1192.56	0.92882	0.0711819	7.43819	7.496	-5.30718	22.11789	30.17519	1.19005	0.8403	86.55518	139.41047	31.5668	0.37098	11.64864	92205.39822	0.61413	7.75853E-5	1789.69557	24900.107	 	12505.029
1192.31	0.92905	0.070947	7.43837	7.49577	-5.31002	22.11349	30.17127	1.19	0.84034	86.66734	139.43424	31.60876	0.37094	11.66195	92638.12894	0.61332	7.72094E-5	1789.80309	24887.351	 	12508.282
1192.31	0.92905	0.070947	7.43837	7.49577	-5.31002	22.11349	30.17126	1.19	0.84034	86.66735	139.43425	31.60876	0.37094	11.66195	92638.23584	0.61332	7.72093E-5	1789.80311	24887.346	 	12508.284
1190.0	0.93139	0.068608	7.44008	7.49364	-5.33699	22.06947	30.13437	1.18958	0.84063	87.76795	139.6543	32.02054	0.37049	11.7794	96719.65894	0.60625	7.38347E-5	1790.8988	24767.156	49.3074	12542.888
1185.0	0.93616	0.0638397	7.44367	7.48912	-5.39408	21.97794	30.05392	1.18869	0.84127	90.06772	140.12276	32.88165	0.36957	12.03861	106091.5891	0.59117	6.70823E-5	1793.26308	24511.549	51.1214	12613.239
1180.0	0.94052	0.0594833	7.44709	7.48476	-5.44914	21.89226	29.9733	1.1878	0.8419	92.24278	140.57999	33.69686	0.36871	12.30401	116220.8919	0.57644	6.10257E-5	1795.60249	24262.771	49.7556	12677.121
1175.0	0.94451	0.0554868	7.45037	7.48054	-5.50247	21.81156	29.89277	1.1869	0.84253	94.30482	141.02712	34.47046	0.36791	12.57576	127181.5844	0.56204	5.55746E-5	1797.91898	24020.005	48.5532	12735.348
1170.0	0.94819	0.0518063	7.45352	7.47645	-5.5541	21.73578	29.81228	1.18599	0.84317	96.26526	141.46533	35.20659	0.36715	12.85405	139056.2989	0.54797	5.06533E-5	1800.2124	23782.556	47.4898	12788.614
1165.0	0.95159	0.0484057	7.45656	7.47246	-5.60444	21.66364	29.73178	1.18508	0.84382	98.13444	141.89516	35.90908	0.36643	13.13894	151934.8827	0.53423	4.61991E-5	1802.48595	23549.844	46.5424	12837.497
1160.0	0.95475	0.0452549	7.45949	7.46858	-5.65344	21.5953	29.65126	1.18417	0.84447	99.92001	142.31771	36.58069	0.36575	13.4307	165915.8789	0.52081	4.2159E-5	1804.73886	23321.361	45.6966	12882.502
1158.4	0.9557	0.0443011	7.46041	7.46737	-5.66884	21.57426	29.62553	1.18388	0.84468	100.47251	142.45129	36.78861	0.36554	13.5255	170633.9804	0.51658	4.09476E-5	1805.45261	23249.229	 	12896.024
1158.4	0.9557	0.0443011	7.46041	7.46737	-5.66884	21.57426	29.62553	1.18388	0.84468	100.47251	142.45129	36.78861	0.36554	13.5255	170633.9804	0.51658	4.09476E-5	1805.45261	23249.229	 	12896.024
1155.0	0.96071	0.0392919	7.46322	7.46317	-5.72191	21.46106	29.56865	1.18334	0.84507	103.04187	142.88595	37.75459	0.36463	13.69956	183253.25	0.50881	3.80372E-5	1806.93049	23029.037	58.4648	12991.697
1150.0	0.96682	0.0331788	7.46547	7.45687	-5.80137	21.28854	29.41299	1.18543	0.84357	106.48506	143.58506	39.052	0.36338	13.9624	202571.2766	0.49748	3.42894E-5	1809.10469	22655.39913	74.72757	13107.457
1145.0	0.97179	0.0282085	7.47287	7.44906	-5.90014	21.04911	29.16592	1.19128	0.83944	109.90634	144.40116	40.35043	0.3619	14.23354	226176.334	0.48629	3.06028E-5	1811.29266	22224.73906	86.13201	13200.608
1140.0	0.97591	0.0240893	7.47955	7.44174	-5.9925	20.8293	28.9294	1.19678	0.83557	112.93979	145.15758	41.50417	0.36058	14.51286	251723.188	0.47525	2.74001E-5	1813.49388	21817.22705	81.5024	13276.978
1135.0	0.97938	0.0206202	7.48561	7.43485	-6.07963	20.62541	28.70246	1.20198	0.83196	115.66386	145.8661	42.54226	0.3594	14.80034	279492.148	0.46437	2.45904E-5	1815.70848	21428.56158	77.73309	13340.575
1130.0	0.98234	0.0176586	7.49115	7.4283	-6.16236	20.43476	28.48436	1.20688	0.82858	118.13596	146.53455	43.486	0.35832	15.09602	309773.9914	0.45366	2.21078E-5	1817.93572	21055.6318	74.58596	13394.24
1125.0	0.9849	0.0150996	7.49624	7.42204	-6.24138	20.25519	28.27447	1.21151	0.82542	120.39965	147.16865	44.35157	0.35733	15.39996	342876.7624	0.44312	1.99023E-5	1820.17644	20696.10434	71.90549	13440.041
1120.0	0.98713	0.0128658	7.50094	7.41604	-6.31716	20.08519	28.07222	1.21587	0.82246	122.4881	147.7729	45.15133	0.35642	15.71229	379131.5372	0.43276	1.79347E-5	1822.43041	20348.19946	69.58098	13479.519
1115.0	0.9891	0.0108981	7.50529	7.41027	-6.39011	19.92347	27.87712	1.21999	0.81968	124.42831	148.35094	45.89532	0.35557	16.03308	418901.4519	0.42258	1.61738E-5	1824.69706	20010.5148	67.53693	13513.839
1110.0	0.99085	0.0091515	7.50933	7.40469	-6.46055	19.76904	27.68869	1.22386	0.81708	126.24086	148.90558	46.59123	0.35477	16.36267	462580.9032	0.41257	1.45938E-5	1826.97671	19681.9369	65.71558	13543.905
1105.0	0.99241	0.00758992	7.51311	7.39929	-6.52875	19.62106	27.50657	1.22751	0.81466	127.94273	149.43924	47.2454	0.35402	16.70084	510605.7021	0.40276	1.31734E-5	1829.26936	19361.54794	64.07779	13570.424
1100.0	0.99382	0.00618478	7.51664	7.39406	-6.59492	19.47885	27.33016	1.23095	0.81238	129.54758	149.95388	47.86294	0.35332	17.048	563456.4055	0.39313	1.18945E-5	1831.57555	19048.59018	62.59155	13593.955
1095.0	0.99509	0.00491194	7.51996	7.38896	-6.65934	19.34152	27.15915	1.23419	0.81024	131.0676	150.45137	48.44843	0.35265	17.40442	621670.129	0.38367	1.07414E-5	1833.89444	18742.14237	61.28956	13614.949
1090.0	0.99625	0.00375492	7.52309	7.38399	-6.72206	19.20895	26.99327	1.23724	0.80825	132.51158	150.93301	49.00514	0.35202	17.77023	685835.6175	0.3744	9.70086E-6	1836.2256	18441.96276	60.03592	13633.772
1085.0	0.9973	0.0026961	7.52605	7.37915	-6.78323	19.08072	26.83221	1.2401	0.80639	133.88721	151.40001	49.53597	0.35141	18.14563	756609.4134	0.36531	8.76118E-6	1838.56992	18147.58929	58.87469	13650.725
1080.0	0.99828	0.0017245	7.52885	7.37442	-6.84295	18.95642	26.67573	1.24278	0.80464	135.20194	151.85354	50.04371	0.35084	18.5311	834727.0729	0.35639	7.91203E-6	1840.92741	17858.61192	57.79547	13666.056
1075.0	0.99917	8.29107E-4	7.53151	7.3698	-6.90135	18.83574	26.52386	1.24528	0.80303	136.46201	152.2946	50.53072	0.35029	18.9269	921008.9523	0.34765	7.14432E-6	1843.29614	17574.66637	56.78911	13679.972
1070.0	1.0	0.0	7.53405	7.36527	-6.95852	18.71838	26.37623	1.24761	0.80153	137.67198	152.72399	50.99871	0.34976	 	1016364.835	 	6.45003E-6	 	17295.4317	55.84693	13692.647
1065.0	1.0	0.0	7.5379	7.36151	-7.00608	18.6349	26.2344	1.24968	0.8002	138.40094	153.11237	51.28441	0.34935	 	1122468.083	 	5.81859E-6	 	17136.17279	31.85178	 
1060.0	1.0	0.0	7.54171	7.35779	-7.053	18.55299	26.09624	1.2516	0.79897	139.11586	153.49251	51.56473	0.34894	 	1240653.248	 	5.24464E-6	 	16892.01141	48.83228	 
1055.0	1.0	0.0	7.54547	7.35413	-7.09929	18.4726	25.96154	1.25338	0.79784	139.81739	153.86482	51.83992	0.34855	 	1372402.407	 	4.72337E-6	 	16650.70067	48.26215	 
1050.0	1.0	0.0	7.54918	7.35051	-7.14498	18.39365	25.83014	1.25501	0.7968	140.50611	154.22969	52.11019	0.34816	 	1519392.162	 	4.25036E-6	 	16412.12585	47.71496	 
1045.0	1.0	0.0	7.55285	7.34694	-7.19009	18.31607	25.70185	1.25651	0.79585	141.18261	154.58747	52.37576	0.34779	 	1683520.731	 	3.82149E-6	 	16176.17747	47.18968	 
1040.0	1.0	0.0	7.55648	7.34342	-7.23464	18.23981	25.57651	1.25788	0.79499	141.8474	154.9385	52.63685	0.34742	 	1866939.342	 	3.43298E-6	 	15942.75097	46.6853	 
1035.0	1.0	0.0	7.56006	7.33993	-7.27866	18.16481	25.45397	1.25912	0.7942	142.50102	155.28308	52.89364	0.34705	 	2072088.132	 	3.08131E-6	 	15711.74651	46.20089	 
1030.0	1.0	0.0	7.56361	7.33649	-7.32216	18.091	25.33408	1.26025	0.7935	143.14393	155.62152	53.14632	0.3467	 	2301737.367	 	2.76328E-6	 	15483.06871	45.73556	 
1025.0	1.0	0.0	7.56712	7.33308	-7.36517	18.01833	25.2167	1.26125	0.79286	143.77661	155.95409	53.39507	0.34635	 	2559034.893	 	2.47591E-6	 	15256.62646	45.28845	 
1020.0	1.0	0.0	7.5706	7.32972	-7.4077	17.94675	25.10171	1.26215	0.7923	144.3995	156.28104	53.64005	0.346	 	2847561.249	 	2.21647E-6	 	15032.33271	44.85875	 
1015.0	1.0	0.0	7.57404	7.32639	-7.44977	17.8762	24.98898	1.26294	0.7918	145.013	156.60263	53.88143	0.34567	 	3171392.783	 	1.98245E-6	 	14810.10426	44.44569	 
1010.0	1.0	0.0	7.57745	7.32309	-7.4914	17.80665	24.8784	1.26363	0.79137	145.61751	156.91908	54.11935	0.34534	 	3535174.722	 	1.77155E-6	 	14589.86166	44.04852	 
1005.0	1.0	0.0	7.58083	7.31983	-7.5326	17.73803	24.76986	1.26422	0.791	146.21342	157.23061	54.35396	0.34501	 	3944205.703	 	1.58164E-6	 	14371.52893	43.66655	 
1000.0	1.0	0.0	7.58417	7.3166	-7.57339	17.67031	24.66326	1.26472	0.79069	146.80107	157.53743	54.5854	0.34469	 	4404535.714	 	1.4108E-6	 	14155.03347	43.29909	 
995.0	1.0	0.0	7.58749	7.3134	-7.61379	17.60345	24.5585	1.26513	0.79043	147.38081	157.83972	54.81379	0.34438	 	4923079.268	 	1.25725E-6	 	13940.3059	42.94551	 
990.0	1.0	0.0	7.59077	7.31023	-7.6538	17.5374	24.45549	1.26545	0.79023	147.95297	158.13768	55.03927	0.34407	 	5507746.754	 	1.11935E-6	 	13727.27992	42.6052	 
985.0	1.0	0.0	7.59403	7.3071	-7.69344	17.47212	24.35416	1.26568	0.79009	148.51784	158.43147	55.26195	0.34376	 	6167597.553	 	9.95642E-7	 	13515.89214	42.27756	 
980.0	1.0	0.0	7.59727	7.30399	-7.73273	17.40757	24.25441	1.26584	0.78999	149.07571	158.72126	55.48194	0.34346	 	6913016.955	 	8.84753E-7	 	13306.08197	41.96203	 
975.0	1.0	0.0	7.60048	7.3009	-7.77167	17.34372	24.15617	1.26592	0.78994	149.62688	159.0072	55.69935	0.34317	 	7755923.133	 	7.85453E-7	 	13097.79153	41.65809	 
970.0	1.0	0.0	7.60366	7.29785	-7.81027	17.28053	24.05937	1.26592	0.78994	150.1716	159.28943	55.91428	0.34287	 	8710006.696	 	6.96613E-7	 	12890.96546	41.36521	 
965.0	1.0	0.0	7.60682	7.29482	-7.84856	17.21798	23.96395	1.26585	0.78999	150.71012	159.56811	56.12683	0.34259	 	9791012.297	 	6.17209E-7	 	12685.55084	41.08292	 
960.0	1.0	0.0	7.60995	7.29181	-7.88653	17.15601	23.86984	1.26571	0.79007	151.24268	159.84335	56.33709	0.3423	 	1.101706514E7	 	5.46307E-7	 	12481.49709	40.81075	 
955.0	1.0	0.0	7.61307	7.28883	-7.9242	17.09461	23.77698	1.2655	0.7902	151.76951	160.11528	56.54515	0.34202	 	1.240905457E7	 	4.83058E-7	 	12278.75586	40.54825	 
950.0	1.0	0.0	7.61616	7.28587	-7.96158	17.03375	23.68532	1.26522	0.79038	152.29083	160.38403	56.75109	0.34174	 	1.399108124E7	 	4.26693E-7	 	12077.28091	40.29499	 
945.0	1.0	0.0	7.61923	7.28293	-7.99867	16.97339	23.5948	1.26488	0.79059	152.80684	160.6497	56.955	0.34147	 	1.579098156E7	 	3.76512E-7	 	11877.02804	40.05057	 
940.0	1.0	0.0	7.62228	7.28002	-8.0355	16.91351	23.50538	1.26448	0.79084	153.31774	160.91241	57.15694	0.3412	 	1.784094306E7	 	3.31882E-7	 	11677.95498	39.81461	 
935.0	1.0	0.0	7.62531	7.27713	-8.07205	16.85408	23.417	1.26402	0.79112	153.82371	161.17225	57.357	0.34093	 	2.017822862E7	 	2.9223E-7	 	11480.02132	39.58673	 
930.0	1.0	0.0	7.62832	7.27425	-8.10835	16.79508	23.32963	1.26351	0.79145	154.32494	161.42933	57.55523	0.34067	 	2.284602206E7	 	2.57037E-7	 	11283.1884	39.36658	 
925.0	1.0	0.0	7.63132	7.2714	-8.14439	16.73648	23.24323	1.26293	0.79181	154.82159	161.68374	57.75171	0.34041	 	2.589443276E7	 	2.25835E-7	 	11087.41927	39.15383	 
920.0	1.0	0.0	7.63429	7.26856	-8.1802	16.67825	23.15774	1.26231	0.7922	155.31383	161.93556	57.9465	0.34015	 	2.938167028E7	 	1.98201E-7	 	10892.67858	38.94814	 
915.0	1.0	0.0	7.63725	7.26575	-8.21576	16.62039	23.07314	1.26163	0.79263	155.80181	162.18489	58.13966	0.33989	 	3.337543426E7	 	1.73752E-7	 	10698.9325	38.74921	 
910.0	1.0	0.0	7.64019	7.26295	-8.2511	16.56285	22.9894	1.26089	0.79309	156.28568	162.4318	58.33124	0.33964	 	3.795456245E7	 	1.52147E-7	 	10506.14871	38.55676	 
905.0	1.0	0.0	7.64312	7.26017	-8.28621	16.50562	22.90647	1.26011	0.79358	156.76558	162.67638	58.5213	0.33939	 	4.321096565E7	 	1.33074E-7	 	10314.29625	38.37049	 
