T (C)	Fraction solid (wt)-TOTAL	Fraction liquid (wt)-LIQUID	Density (g/(cm)^3)-TOTAL	Molar volume (cm^3)-TOTAL	Volume change (%)-  	Average expansion coeff. (10e-6 1/K)-  	Thermal conductivity (W/(m*K))-TOTAL	Electrical resistivity (10e-6 Ohm*m)-TOTAL	Electrical conductivity (10e6 1/(Ohm*m))-TOTAL	Young's modulus (GPa)-TOTAL	Bulk modulus (GPa)-TOTAL	Shear modulus(GPa)-TOTAL	Poisson's ratio-TOTAL	Liquid viscosity (mPa s)-  	Total viscosity (mPa s)-  	Liquid diffusivity (10e-9 (m^2)/s)-  	Total diffusivity (10e-9 (m^2)/s)-  	Surface Tension (mN/m)-  	Enthalpy (J/mole)-TOTAL	Specific heat (J/(mole K))-TOTAL	Latent heat (J/mole)-TOTAL
1400.0	0.0	1.0	7.7049	7.76217	0.0	27.64284	30.9436	1.32474	0.75487	0.0	129.01528	0.0	0.5	7.71951	7.71951	1.05787	1.05787	1794.83725	56600.062	 	0.0
1395.0	0.0	1.0	7.70899	7.75805	-0.0530284	27.59999	30.86109	1.32431	0.75511	0.0	129.17214	0.0	0.5	7.80424	7.80424	1.04326	1.04326	1797.12653	56395.152	40.982	0.0
1390.0	0.0	1.0	7.71307	7.75395	-0.1059	27.55725	30.77859	1.32388	0.75536	0.0	129.32899	0.0	0.5	7.89041	7.89041	1.02877	1.02877	1799.41657	56190.727	40.885	0.0
1385.0	0.0	1.0	7.71714	7.74986	-0.15861	27.51463	30.69608	1.32345	0.7556	0.0	129.48585	0.0	0.5	7.97807	7.97807	1.01441	1.01441	1801.70721	55986.783	40.7888	0.0
1380.0	0.0	1.0	7.72121	7.74578	-0.21117	27.47213	30.61358	1.32301	0.75585	0.0	129.6427	0.0	0.5	8.06723	8.06723	1.00017	1.00017	1803.99828	55783.317	40.6932	0.0
1375.0	0.0	1.0	7.72526	7.74171	-0.26357	27.42975	30.53107	1.32258	0.7561	0.0	129.79956	0.0	0.5	8.15795	8.15795	0.98606	0.98606	1806.28959	55580.327	40.598	0.0
1370.0	0.0	1.0	7.72931	7.73765	-0.31581	27.38748	30.44856	1.32214	0.75635	0.0	129.95642	0.0	0.5	8.25024	8.25024	0.97207	0.97207	1808.58097	55377.81	40.5034	0.0
1365.0	0.0	1.0	7.73335	7.73361	-0.36789	27.34534	30.36606	1.3217	0.7566	0.0	130.11327	0.0	0.5	8.34415	8.34415	0.9582	0.9582	1810.87225	55175.762	40.4096	0.0
1360.0	0.0	1.0	7.73739	7.72958	-0.41982	27.30332	30.28355	1.32125	0.75686	0.0	130.27013	0.0	0.5	8.43972	8.43972	0.94446	0.94446	1813.16326	54974.183	40.3158	0.0
1355.0	0.0	1.0	7.74141	7.72556	-0.47159	27.26142	30.20105	1.3208	0.75711	0.0	130.42698	0.0	0.5	8.53698	8.53698	0.93084	0.93084	1815.45384	54773.067	40.2232	0.0
1350.0	0.0	1.0	7.74543	7.72155	-0.5232	27.21964	30.11854	1.32036	0.75737	0.0	130.58384	0.0	0.5	8.63596	8.63596	0.91735	0.91735	1817.74382	54572.414	40.1306	0.0
1345.0	0.0	1.0	7.74944	7.71756	-0.57466	27.17799	30.03603	1.3199	0.75763	0.0	130.7407	0.0	0.5	8.73672	8.73672	0.90398	0.90398	1820.03305	54372.22	40.0388	0.0
1340.0	0.0	1.0	7.75344	7.71358	-0.62596	27.13647	29.95353	1.31945	0.75789	0.0	130.89755	0.0	0.5	8.83929	8.83929	0.89073	0.89073	1822.32138	54172.482	39.9476	0.0
1339.09	0.0	1.0	7.75417	7.71285	-0.6353	27.12891	29.93847	1.31937	0.75794	0.0	130.92619	0.0	0.5	8.85821	8.85821	0.88832	0.88832	1822.73903	54136.067	39.8933	0.0
1335.0	0.0731505	0.92685	7.77486	7.69229	-0.90028	26.46242	30.12259	1.30798	0.76454	0.00311829	131.08735	0.00104668	0.4896	8.99547	12.18972	0.87255	0.6439	1823.6207	52757.808	337.21432	1215.389
1330.0	0.15175	0.84825	7.79744	7.67002	-1.18713	25.74758	30.31336	1.2957	0.77178	0.0585098	131.31362	0.0197888	0.47836	9.16645	55.65703	0.85361	0.14059	1824.71519	51260.343	299.493	2514.022
1325.0	0.22008	0.77992	7.81748	7.65035	-1.44052	25.12281	30.47162	1.28496	0.77824	0.26188	131.56606	0.0891638	0.46851	9.34088	221.66976	0.83506	0.0351883	1825.82581	49939.913	264.086	3636.068
1320.0	0.27998	0.72002	7.83537	7.63281	-1.66645	24.57194	30.60262	1.27545	0.78404	0.69315	131.84036	0.23741	0.45983	9.51903	597.10635	0.81687	0.0130224	1826.95134	48764.957	234.9912	4613.087
1315.0	0.33288	0.66712	7.8515	7.61714	-1.86838	24.0859	30.71153	1.26694	0.7893	1.39855	132.13568	0.48156	0.45212	9.70096	1256.94481	0.79903	0.00616683	1828.09025	47710.736	210.8442	5469.815
1310.0	0.37991	0.62009	7.86613	7.60287	-2.05221	23.64838	30.80111	1.25928	0.79411	2.39393	132.44572	0.82822	0.44522	9.88687	2262.03328	0.78154	0.00341594	1829.24191	46757.621	190.623	6225.878
1305.0	0.42198	0.57802	7.87949	7.58997	-2.21848	23.25841	30.87477	1.25231	0.79853	3.67404	132.77208	1.27657	0.43903	10.07682	3662.84745	0.76438	0.00210289	1830.40437	45889.868	173.5506	6897.016
1300.0	0.45984	0.54016	7.89178	7.578	-2.37263	22.90065	30.93397	1.24595	0.8026	5.22052	133.10817	1.82101	0.43342	10.27114	5502.26196	0.74755	0.00139545	1831.57747	45094.726	159.0284	7495.981
1295.0	0.49408	0.50592	7.90312	7.56705	-2.51365	22.57847	30.98108	1.2401	0.80639	7.00776	133.4568	2.45314	0.42833	10.46984	7820.151	0.73103	9.78722E-4	1832.7589	44361.767	146.5918	8033.196
1290.0	0.5252	0.4748	7.91366	7.55687	-2.64483	22.28262	31.01737	1.2347	0.80991	9.00787	133.81438	3.16359	0.42368	10.67316	10655.23611	0.71482	7.16019E-4	1833.94806	43682.397	135.874	8517.256
1285.0	0.55361	0.44639	7.9235	7.54732	-2.76788	22.00842	31.04409	1.22969	0.81321	11.19249	134.17904	3.94265	0.41941	10.88119	14047.25385	0.69891	5.41383E-4	1835.14392	43049.474	126.5846	8955.296
1280.0	0.57967	0.42033	7.93273	7.53837	-2.88315	21.75503	31.06223	1.22503	0.81631	13.53508	134.55079	4.78108	0.41548	11.09426	18039.87158	0.68328	4.2021E-4	1836.34487	42457.021	118.4906	9353.293
1275.0	0.60365	0.39635	7.94141	7.52999	-2.99109	21.52139	31.07297	1.22066	0.81923	16.01016	134.92967	5.6699	0.41185	11.3124	22679.81229	0.66795	3.33166E-4	1837.54929	41900.003	111.4036	9716.279
1270.0	0.62581	0.37419	7.94962	7.52202	-3.09382	21.30141	31.07678	1.21657	0.82198	18.59654	135.31287	6.60161	0.40849	11.53598	28019.76345	0.65289	2.68801E-4	1838.75665	41374.152	105.1702	10048.52
1265.0	0.64637	0.35363	7.95741	7.51445	-3.19129	21.0954	31.07452	1.21272	0.82459	21.27558	135.7008	7.56951	0.40535	11.76509	34120.40421	0.6381	2.20025E-4	1839.96508	40875.828	99.6648	10353.653
1260.0	0.6655	0.3345	7.96482	7.50728	-3.28373	20.90286	31.0668	1.20908	0.82708	24.0292	136.09341	8.56704	0.40242	11.99997	41046.87603	0.62358	1.82302E-4	1841.17292	40401.912	94.7832	10634.797
1255.0	0.68337	0.31663	7.9719	7.5004	-3.37235	20.72028	31.05411	1.20563	0.82944	26.84634	136.4894	9.59021	0.39967	12.24096	48878.63051	0.60931	1.52593E-4	1842.37918	39949.718	90.4388	10894.634
1250.0	0.70011	0.29989	7.97868	7.4938	-3.45739	20.54707	31.03695	1.20235	0.83171	29.71352	136.88856	10.63406	0.39709	12.48814	57697.98799	0.59529	1.28845E-4	1843.58228	39516.92	86.5596	11135.487
1245.0	0.71583	0.28417	7.98519	7.48744	-3.53926	20.38206	31.01574	1.19922	0.83388	32.62207	137.29037	11.69538	0.39466	12.74188	67602.82392	0.58152	1.09607E-4	1844.78063	39101.501	83.0838	11359.372
1240.0	0.73066	0.26934	7.99147	7.48133	-3.61798	20.22536	30.99089	1.19623	0.83596	35.56418	137.6951	12.77124	0.39235	13.00233	78702.1981	0.568	9.38387E-5	1845.97223	38701.702	79.9598	11568.044
1235.0	0.74466	0.25534	7.99753	7.47541	-3.69428	20.07479	30.96269	1.19336	0.83797	38.53328	138.1018	13.8592	0.39017	13.26987	91115.61914	0.55471	8.07864E-5	1847.156	38315.99	77.1424	11763.037
1230.0	0.75794	0.24206	8.0034	7.46968	-3.7681	19.93057	30.93147	1.19061	0.83991	41.52751	138.51063	14.95849	0.38809	13.54482	104988.1249	0.54165	6.98793E-5	1848.32972	37943.023	74.5934	11945.689
1225.0	0.77055	0.22945	8.00909	7.46413	-3.83964	19.79224	30.89746	1.18795	0.84179	44.53786	138.92126	16.06573	0.38611	13.82735	120460.4198	0.52881	6.07012E-5	1849.49174	37581.629	72.2788	12117.17
1220.0	0.78257	0.21743	8.01462	7.45872	-3.90924	19.65877	30.86089	1.18539	0.8436	47.56256	139.33338	17.18022	0.38422	14.11784	137704.8298	0.5162	5.29226E-5	1850.64065	37230.784	70.169	12278.501
1215.0	0.79403	0.20597	8.02	7.45346	-3.97704	19.52981	30.82199	1.18291	0.84537	50.59977	139.74678	18.30121	0.38242	14.41661	156913.2178	0.50381	4.62886E-5	1851.77474	36889.6	68.2368	12430.569
1210.0	0.805	0.195	8.02526	7.44831	-4.04336	19.40439	30.78099	1.18051	0.84709	53.64795	140.16114	19.42809	0.38068	14.72391	178297.4706	0.49164	4.06001E-5	1852.89296	36557.307	66.4586	12574.142
1205.0	0.8155	0.1845	8.03039	7.44331	-4.10781	19.28377	30.73798	1.17817	0.84877	56.70038	140.57678	20.55829	0.37901	15.04004	202079.4401	0.47969	3.57012E-5	1853.99319	36233.244	64.8126	12709.879
1200.0	0.82556	0.17444	8.0354	7.4384	-4.1711	19.16583	30.69312	1.1759	0.85041	59.75679	140.99273	21.69169	0.37741	15.36536	228518.2165	0.46794	3.14639E-5	1855.07567	35916.847	63.2794	12838.341
1195.0	0.83523	0.16477	8.04031	7.43362	-4.23267	19.0523	30.6465	1.1737	0.85201	62.80955	141.40949	22.82535	0.37587	15.70008	257882.6123	0.45641	2.77866E-5	1856.13849	35607.642	61.841	12960.0
1190.0	0.84449	0.15551	8.04511	7.42893	-4.29315	18.94129	30.59827	1.17154	0.85358	65.85779	141.82621	23.95893	0.37439	16.04447	290484.6672	0.44509	2.4584E-5	1857.18281	35305.23	60.4824	13075.254
1185.0	0.85339	0.14661	8.04982	7.42434	-4.35219	18.83393	30.54846	1.16944	0.85511	68.89272	142.24302	25.08908	0.37296	16.39876	326644.0893	0.43399	2.17878E-5	1858.20802	35009.278	59.1904	13184.434
1183.71	0.85559	0.14441	8.05101	7.42317	-4.36728	18.80664	30.53513	1.16891	0.85549	69.66155	142.3505	25.37563	0.37261	16.49224	336563.31	0.43115	2.11269E-5	1858.47239	34934.177	 	13211.229
1180.0	0.86768	0.13232	8.05604	7.41843	-4.42837	18.67056	30.53347	1.166	0.85763	72.53143	142.71124	26.45555	0.37082	16.74729	375381.9639	0.4235	1.8894E-5	1858.01606	34619.816	77.8924	13387.506
1175.0	0.88203	0.11797	8.06226	7.41258	-4.50375	18.50833	30.52239	1.16241	0.86028	76.07727	143.18426	27.79241	0.36867	17.09785	431123.7037	0.41339	1.63945E-5	1857.42571	34225.431	78.877	13595.883
1170.0	0.89436	0.10564	8.06794	7.40725	-4.57244	18.36637	30.50204	1.15917	0.86268	79.28653	143.64329	29.00455	0.36679	17.45619	490905.0045	0.4035	1.43483E-5	1856.87444	33861.391	72.808	13774.295
1165.0	0.90505	0.0949457	8.07316	7.40236	-4.63537	18.24193	30.47396	1.15622	0.86489	82.22753	144.09105	30.11673	0.36515	17.82262	555174.7493	0.39384	1.26433E-5	1856.36362	33522.271	67.824	13928.166
1160.0	0.91438	0.0856225	8.078	7.39784	-4.69365	18.13163	30.43934	1.15351	0.86692	84.97489	144.52905	31.15631	0.36369	18.19758	624459.7741	0.38438	1.12014E-5	1855.89618	33203.807	63.6928	14061.754
1155.0	0.92256	0.0774437	8.08255	7.39362	-4.74801	18.03321	30.39923	1.15101	0.86881	87.59823	144.95879	32.14888	0.36238	18.58118	699341.3122	0.37513	9.96716E-6	1855.47345	32902.615	60.2384	14178.446
1150.0	0.92977	0.0702267	8.08683	7.38965	-4.79914	17.94458	30.35444	1.14867	0.87057	90.15894	145.38131	33.11713	0.36121	18.974	780455.3958	0.36608	8.89999E-6	1855.09717	32615.978	57.3274	14280.952
1145.0	0.93617	0.0638274	8.0909	7.3859	-4.84739	17.86472	30.30565	1.14647	0.87224	92.70748	145.79777	34.07971	0.36016	19.37624	868508.7659	0.35722	7.96957E-6	1854.76643	32341.703	54.855	14371.468
1143.03	0.93848	0.061523	8.09244	7.38448	-4.86575	17.83529	30.28524	1.14565	0.87287	93.71047	145.96052	34.45822	0.35977	19.53798	905278.2381	0.35377	7.63522E-6	1854.6506	32236.779	 	14403.926
1140.0	0.94401	0.0559908	8.09526	7.38177	-4.90068	17.76737	30.25839	1.14422	0.87396	96.24555	146.24252	35.41385	0.35887	19.78438	972544.978	0.34862	7.09194E-6	1854.38673	32039.731	60.3944	14490.048
1135.0	0.95205	0.0479549	8.09962	7.37755	-4.95498	17.66575	30.21039	1.14198	0.87567	100.53677	146.69441	37.02915	0.35754	20.20136	1090420.048	0.34022	6.30292E-6	1853.88953	31731.566	61.633	14615.188
1130.0	0.9588	0.0411996	8.10364	7.37364	-5.00545	17.57607	30.15782	1.13991	0.87726	104.84343	147.13125	38.64811	0.35638	20.63015	1217019.364	0.33196	5.62721E-6	1853.3376	31443.876	57.538	14720.216
1126.62	0.96274	0.0372622	8.10621	7.37113	-5.03774	17.52123	30.11978	1.1386	0.87827	107.68383	147.41947	39.71531	0.3557	20.9271	1308091.187	0.32646	5.22281E-6	1852.94431	31259.388	 	14781.279
1125.0	0.96711	0.0328857	8.10805	7.36922	-5.06227	17.46413	30.11083	1.13762	0.87903	110.99462	147.65308	40.95745	0.355	21.00647	1367069.836	0.32485	4.99171E-6	1851.53402	31117.156	65.344	14864.637
1120.0	0.9792	0.0208022	8.11346	7.36372	-5.13314	17.30355	30.0886	1.13439	0.88153	120.70948	148.33102	44.60583	0.35307	21.26536	1557713.19	0.31975	4.36513E-6	1847.12043	30713.247	80.7818	15086.609
1115.0	0.98799	0.0120083	8.11803	7.35904	-5.19349	17.17728	30.05147	1.13172	0.88361	127.37004	148.91761	47.11741	0.35162	21.55349	1753113.667	0.31434	3.86468E-6	1842.98041	30376.771	 	15241.576
1115.0	0.988	0.0120029	8.11803	7.35904	-5.19354	17.17716	30.05147	1.13171	0.88362	127.37388	148.91795	47.11887	0.35162	21.55373	1753219.098	0.31434	3.86444E-6	1842.97981	30376.575	67.3344	15241.7
1110.0	1.0	0.0	8.12285	7.3528	-5.27392	16.98121	30.01198	1.12912	0.88564	134.93469	149.64858	49.98616	0.34972	 	1998148.907	 	3.37853E-6	 	29945.668	86.1814	15491.384
1105.0	1.0	0.0	8.12535	7.35052	-5.30325	16.95898	29.92649	1.12825	0.88633	135.40597	150.01224	50.16667	0.34956	 	2179354.065	 	3.08642E-6	 	29734.36998	42.2596	 
1100.0	1.0	0.0	8.12785	7.34826	-5.33232	16.93744	29.84104	1.12738	0.88701	135.87676	150.37525	50.34701	0.3494	 	2378515.993	 	2.81773E-6	 	29566.62354	33.54929	 
1095.0	1.0	0.0	8.13034	7.34601	-5.36134	16.91588	29.75559	1.1265	0.88771	136.34673	150.73661	50.52709	0.34924	 	2597538.161	 	2.57074E-6	 	29399.14916	33.49487	 
1090.0	1.0	0.0	8.13283	7.34376	-5.39029	16.89433	29.67013	1.12562	0.8884	136.81588	151.09633	50.7069	0.34909	 	2838562.364	 	2.34386E-6	 	29231.94638	33.44056	 
1085.0	1.0	0.0	8.13531	7.34152	-5.4192	16.87277	29.58467	1.12473	0.8891	137.28422	151.45441	50.88646	0.34893	 	3103978.294	 	2.13558E-6	 	29065.01468	33.38634	 
1080.0	1.0	0.0	8.13779	7.33928	-5.44804	16.85121	29.49921	1.12383	0.88981	137.75173	151.81085	51.06575	0.34877	 	3396454.49	 	1.9445E-6	 	28898.35359	33.33222	 
1075.0	1.0	0.0	8.14027	7.33705	-5.47683	16.82965	29.41374	1.12293	0.89052	138.21842	152.16567	51.24478	0.34861	 	3718972.807	 	1.7693E-6	 	28731.9626	33.2782	 
1070.0	1.0	0.0	8.14275	7.33482	-5.50556	16.80808	29.32826	1.12203	0.89124	138.68429	152.51887	51.42355	0.34845	 	4074867.713	 	1.60878E-6	 	28565.84122	33.22428	 
1065.0	1.0	0.0	8.14522	7.33259	-5.53423	16.78651	29.24278	1.12112	0.89196	139.14935	152.87046	51.60205	0.34829	 	4467870.964	 	1.46181E-6	 	28399.98897	33.17045	 
1060.0	1.0	0.0	8.14769	7.33037	-5.56284	16.76494	29.15729	1.12021	0.89269	139.61358	153.22043	51.7803	0.34813	 	4902162.294	 	1.32733E-6	 	28234.40534	33.11673	 
1055.0	1.0	0.0	8.15015	7.32815	-5.5914	16.74337	29.0718	1.11929	0.89343	140.077	153.5688	51.95828	0.34798	 	5382426.022	 	1.20436E-6	 	28069.08986	33.0631	 
1050.0	1.0	0.0	8.15261	7.32594	-5.6199	16.72179	28.98631	1.11836	0.89417	140.5396	153.91556	52.13599	0.34782	 	5913916.993	 	1.09199E-6	 	27904.04203	33.00957	 
1045.0	1.0	0.0	8.15507	7.32373	-5.64834	16.70022	28.90081	1.11743	0.89491	141.00138	154.26074	52.31345	0.34766	 	6502534.146	 	9.89393E-7	 	27739.26135	32.95613	 
1040.0	1.0	0.0	8.15753	7.32153	-5.67673	16.67864	28.8153	1.1165	0.89566	141.46234	154.60432	52.49064	0.3475	 	7154904.875	 	8.95771E-7	 	27574.74734	32.9028	 
1035.0	1.0	0.0	8.15998	7.31933	-5.70505	16.65706	28.72979	1.11556	0.89641	141.92248	154.94632	52.66756	0.34734	 	7878480.775	 	8.10404E-7	 	27410.49953	32.84956	 
1030.0	1.0	0.0	8.16242	7.31714	-5.73332	16.63547	28.64427	1.11461	0.89718	142.3818	155.28674	52.84423	0.34718	 	8681647.816	 	7.3262E-7	 	27246.51739	32.79643	 
1025.0	1.0	0.0	8.16487	7.31495	-5.76153	16.61389	28.55875	1.11366	0.89794	142.8403	155.62558	53.02063	0.34703	 	9573849.683	 	6.61797E-7	 	27082.80061	32.74336	 
1020.0	1.0	0.0	8.16731	7.31276	-5.78969	16.5923	28.47322	1.1127	0.89871	143.29799	155.96286	53.19677	0.34687	 	1.056573201E7	 	5.9736E-7	 	26919.34886	32.69035	 
1015.0	1.0	0.0	8.16974	7.31058	-5.81778	16.57072	28.38768	1.11174	0.89949	143.75486	156.29857	53.37264	0.34671	 	1.166930325E7	 	5.38776E-7	 	26756.16139	32.63749	 
1010.0	1.0	0.0	8.17218	7.3084	-5.84582	16.54913	28.30215	1.11077	0.90028	144.2109	156.63272	53.54826	0.34655	 	1.289812277E7	 	4.85554E-7	 	26593.23771	32.58473	 
1005.0	1.0	0.0	8.1746	7.30623	-5.8738	16.52754	28.2166	1.1098	0.90107	144.66613	156.96532	53.7236	0.34639	 	1.426751344E7	 	4.3724E-7	 	26430.57733	32.53208	 
1000.0	1.0	0.0	8.17703	7.30407	-5.90173	16.50595	28.13105	1.10882	0.90186	145.12055	157.29637	53.89869	0.34623	 	1.579480476E7	 	3.93416E-7	 	26268.17976	32.47951	 
998.42	1.0	0.0	8.1778	7.30338	-5.91053	16.49914	28.10404	1.10851	0.90211	145.26383	157.40057	53.95391	0.34618	 	1.63128261E7	 	3.80451E-7	 	26216.96416	 	 
995.0	1.0	0.0	8.17944	7.30191	-5.92945	16.48488	28.0455	1.10783	0.90266	145.57471	157.62681	54.07371	0.34608	 	1.750032584E7	 	3.53681E-7	 	26105.77462	32.48103	 
990.0	1.0	0.0	8.18184	7.29977	-5.95708	16.464	27.95995	1.10684	0.90347	146.02826	157.95605	54.24854	0.34592	 	1.940604594E7	 	3.17691E-7	 	25943.5313	32.44866	 
985.0	1.0	0.0	8.18424	7.29763	-5.98465	16.44308	27.8744	1.10584	0.90429	146.48096	158.28369	54.42309	0.34576	 	2.153690412E7	 	2.85125E-7	 	25781.57178	32.39191	 
980.0	1.0	0.0	8.18664	7.29549	-6.01218	16.42213	27.78884	1.10484	0.90511	146.93279	158.60972	54.59736	0.3456	 	2.392153983E7	 	2.55682E-7	 	25619.89439	32.33548	 
975.0	1.0	0.0	8.18903	7.29336	-6.03966	16.40115	27.70327	1.10383	0.90594	147.38377	158.93416	54.77136	0.34545	 	2.659249019E7	 	2.29084E-7	 	25458.4975	32.27938	 
970.0	1.0	0.0	8.19143	7.29123	-6.06709	16.38014	27.6177	1.10281	0.90677	147.83389	159.25702	54.94507	0.34529	 	2.958675885E7	 	2.05075E-7	 	25297.37956	32.22359	 
965.0	1.0	0.0	8.19381	7.2891	-6.09447	16.3591	27.53212	1.10179	0.90761	148.28316	159.5783	55.11851	0.34513	 	3.294646303E7	 	1.83422E-7	 	25136.53906	32.1681	 
960.0	1.0	0.0	8.1962	7.28698	-6.1218	16.33803	27.44653	1.10076	0.90846	148.73157	159.89801	55.29168	0.34497	 	3.671959206E7	 	1.6391E-7	 	24975.97451	32.11291	 
955.0	1.0	0.0	8.19858	7.28486	-6.14909	16.31693	27.36094	1.09973	0.90931	149.17913	160.21616	55.46457	0.34481	 	4.096087394E7	 	1.46342E-7	 	24815.68448	32.05801	 
950.0	1.0	0.0	8.20096	7.28275	-6.17632	16.29581	27.27534	1.09869	0.91017	149.62585	160.53276	55.63718	0.34466	 	4.573278367E7	 	1.30539E-7	 	24655.66759	32.00338	 
945.0	1.0	0.0	8.20334	7.28064	-6.2035	16.27467	27.18974	1.09764	0.91104	150.07172	160.84782	55.80952	0.3445	 	5.110671347E7	 	1.16335E-7	 	24495.92249	31.94902	 
940.0	1.0	0.0	8.20571	7.27854	-6.23063	16.2535	27.10413	1.09659	0.91192	150.51675	161.16134	55.98159	0.34434	 	5.716432419E7	 	1.0358E-7	 	24336.44785	31.89493	 
935.0	1.0	0.0	8.20808	7.27643	-6.2577	16.23232	27.01851	1.09553	0.9128	150.96093	161.47333	56.15338	0.34418	 	6.399911363E7	 	9.21369E-8	 	24177.24242	31.84109	 
930.0	1.0	0.0	8.21045	7.27434	-6.28473	16.21111	26.93288	1.09447	0.91369	151.40426	161.7838	56.3249	0.34403	 	7.171825191E7	 	8.18798E-8	 	24018.30496	31.78749	 
927.22	1.0	0.0	8.21176	7.27317	-6.29971	16.19933	26.88533	1.09387	0.91418	151.65009	161.95555	56.42002	0.34394	 	7.643115871E7	 	7.66536E-8	 	23930.16073	 	 
925.0	1.0	0.0	8.21277	7.27228	-6.31122	16.19185	26.85211	1.0932	0.91475	151.84772	162.09496	56.49645	0.34387	 	8.040734029E7	 	7.27281E-8	 	23845.47102	34.56679	 
920.0	1.0	0.0	8.21504	7.27027	-6.3371	16.17494	26.77822	1.09164	0.91605	152.29128	162.40707	56.66802	0.34371	 	9.018343215E7	 	6.45736E-8	 	23655.57028	37.98015	 
915.0	1.0	0.0	8.21731	7.26826	-6.36296	16.15792	26.70462	1.09006	0.91738	152.73384	162.71747	56.83926	0.34356	 	1.012464904E8	 	5.72767E-8	 	23466.41889	37.83028	 
910.0	1.0	0.0	8.21958	7.26626	-6.3888	16.14079	26.62968	1.08853	0.91867	153.17541	163.02616	57.01018	0.3434	 	1.137786461E8	 	5.07535E-8	 	23278.0093	37.68192	 
905.0	1.0	0.0	8.22184	7.26425	-6.41461	16.12356	26.55479	1.08699	0.91998	153.61596	163.33314	57.18075	0.34325	 	1.279895783E8	 	4.49275E-8	 	23090.334	37.53506	 
900.0	1.0	0.0	8.22411	7.26225	-6.44041	16.10622	26.47953	1.08545	0.92128	154.0555	163.63839	57.35099	0.34309	 	1.44120947E8	 	3.97295E-8	 	22903.38554	37.38969	 
895.0	1.0	0.0	8.22638	7.26025	-6.46618	16.08878	26.40385	1.08392	0.92258	154.49401	163.94193	57.52089	0.34294	 	1.624515816E8	 	3.50963E-8	 	22717.15648	37.24581	 
890.0	1.0	0.0	8.22864	7.25825	-6.49193	16.07125	26.32772	1.0824	0.92387	154.9315	164.24376	57.69045	0.34278	 	1.83303548E8	 	3.09707E-8	 	22531.63946	37.1034	 
