T (C)	Fraction solid (wt)-TOTAL	Fraction liquid (wt)-LIQUID	Density (g/(cm)^3)-TOTAL	Molar volume (cm^3)-TOTAL	Volume change (%)-  	Average expansion coeff. (10e-6 1/K)-  	Thermal conductivity (W/(m*K))-TOTAL	Electrical resistivity (10e-6 Ohm*m)-TOTAL	Electrical conductivity (10e6 1/(Ohm*m))-TOTAL	Young's modulus (GPa)-TOTAL	Bulk modulus (GPa)-TOTAL	Shear modulus(GPa)-TOTAL	Poisson's ratio-TOTAL	Liquid viscosity (mPa s)-  	Total viscosity (mPa s)-  	Liquid diffusivity (10e-9 (m^2)/s)-  	Total diffusivity (10e-9 (m^2)/s)-  	Surface Tension (mN/m)-  	Enthalpy (J/mole)-TOTAL	Specific heat (J/(mole K))-TOTAL	Latent heat (J/mole)-TOTAL
1400.0	0.0	1.0	7.57203	7.9863	0.0	34.99898	32.52718	1.26024	0.7935	0.0	124.87754	0.0	0.5	7.20782	7.20782	1.13297	1.13297	1869.28428	40127.66	 	0.0
1395.0	0.0	1.0	7.57648	7.98161	-0.0586776	34.96334	32.44189	1.25978	0.79379	0.0	125.01354	0.0	0.5	7.28682	7.28682	1.11734	1.11734	1872.02153	39929.267	39.6786	0.0
1390.0	0.0	1.0	7.58091	7.97694	-0.11719	34.92789	32.35659	1.25932	0.79408	0.0	125.14953	0.0	0.5	7.36718	7.36718	1.10184	1.10184	1874.76667	39731.308	39.5918	0.0
1385.0	0.0	1.0	7.58535	7.97228	-0.17554	34.89265	32.2713	1.25885	0.79438	0.0	125.28553	0.0	0.5	7.44891	7.44891	1.08647	1.08647	1877.51987	39533.779	39.5058	0.0
1380.0	0.0	1.0	7.58977	7.96763	-0.23372	34.85761	32.186	1.25838	0.79467	0.0	125.42153	0.0	0.5	7.53204	7.53204	1.07124	1.07124	1880.28128	39336.679	39.42	0.0
1375.48	0.0	1.0	7.59376	7.96344	-0.28617	34.82612	32.10891	1.25795	0.79494	0.0	125.54445	0.0	0.5	7.60843	7.60843	1.05758	1.05758	1882.78434	39158.903	39.3382	0.0
1375.0	0.01319	0.98681	7.5989	7.9581	-0.3531	34.64938	32.14042	1.25635	0.79596	2.75634E-6	125.89839	9.19718E-7	0.49847	7.61596	7.75046	1.05623	1.0379	1883.08528	38939.792	455.69328	200.206
1370.0	0.14471	0.85529	7.65005	7.90486	-1.01975	32.88751	32.45671	1.24033	0.80623	0.041323	129.41272	0.0139321	0.48301	7.69777	13.70742	1.04184	0.58507	1886.215	36755.527	436.853	2188.219
1365.0	0.25472	0.74528	7.69377	7.85994	-1.58213	31.40929	32.71752	1.2267	0.81519	0.40765	132.39837	0.13867	0.46985	7.78419	55.21083	1.02713	0.14482	1889.33629	34907.894	369.5266	3840.018
1360.0	0.34738	0.65262	7.73135	7.82172	-2.06078	30.15926	32.9322	1.21499	0.82305	1.44322	134.95326	0.49473	0.45859	7.87511	173.50903	1.01218	0.04594	1892.44588	33332.544	315.07	5219.948
1355.0	0.42595	0.57405	7.76382	7.78901	-2.47038	29.09788	33.10835	1.20482	0.83	3.32853	137.15758	1.14864	0.4489	7.97028	396.57764	0.99703	0.0200379	1895.53917	31978.519	270.805	6378.968
1350.0	0.49298	0.50702	7.79205	7.76073	-2.82437	28.18857	33.25152	1.19595	0.83615	6.0775	139.07391	2.10947	0.44052	8.06971	737.16955	0.98172	0.0107468	1898.61445	30805.325	234.6388	7357.565
1345.0	0.55052	0.44948	7.81676	7.73613	-3.13245	27.40505	33.36651	1.18816	0.84164	9.59792	140.75384	3.34832	0.43324	8.17327	1197.50899	0.96629	0.00659518	1901.66874	29780.651	204.9348	8188.05
1340.0	0.60018	0.39982	7.83847	7.71459	-3.40214	26.72691	33.45708	1.18128	0.84654	13.74391	142.23696	4.81606	0.42688	8.28085	1773.59422	0.95079	0.00443923	1904.69907	28878.602	180.4098	8896.315
1335.0	0.64326	0.35674	7.85769	7.6956	-3.64	26.1363	33.52653	1.17518	0.85093	18.35632	143.55654	6.45757	0.4213	8.39248	2458.75809	0.93524	0.00319225	1907.70369	28078.33	160.0544	9503.204
1330.0	0.68081	0.31919	7.87475	7.67875	-3.85097	25.61977	33.57759	1.16974	0.85489	23.28379	144.73838	8.21945	0.41638	8.50799	3245.80414	0.91967	0.00241067	1910.68007	27362.969	143.0722	10025.582
1325.0	0.71367	0.28633	7.89	7.6637	-4.03935	25.16555	33.6127	1.16488	0.85846	28.39544	145.80404	10.05483	0.41203	8.62736	4128.39961	0.90412	0.00188939	1913.62634	26718.809	128.832	10477.154
1320.0	0.74258	0.25742	7.90369	7.6502	-4.20845	24.76463	33.63391	1.1605	0.8617	33.5816	146.77132	11.92395	0.40816	8.75066	5101.28198	0.88859	0.00152428	1916.54232	26134.649	116.832	10869.119
1315.0	0.76808	0.23192	7.91606	7.63798	-4.36148	24.40809	33.64298	1.15655	0.86464	38.75698	147.65477	13.79548	0.4047	8.87784	6160.93999	0.87311	0.00125815	1919.42414	25601.295	106.6708	11210.669
1310.0	0.79067	0.20933	7.92726	7.6269	-4.50021	24.09125	33.6415	1.15296	0.86734	43.85588	148.46643	15.64494	0.4016	9.00883	7305.57594	0.85771	0.00105768	1922.2697	25111.164	98.0262	11509.384
1305.0	0.81075	0.18925	7.93746	7.61677	-4.62699	23.80752	33.63075	1.14968	0.86981	48.83037	149.21621	17.45426	0.39881	9.14366	8534.75746	0.84239	9.02493E-4	1925.07909	24657.972	90.6384	11771.547
1300.0	0.82867	0.17133	7.94679	7.6075	-4.74308	23.55356	33.61189	1.14668	0.87208	53.64432	149.91243	19.20957	0.39629	9.28234	9849.33106	0.82718	7.79561E-4	1927.84911	24236.485	84.2974	12002.386
1300.0	0.82868	0.17132	7.9468	7.60748	-4.74329	23.55302	33.61183	1.14668	0.87208	53.64761	149.91276	19.21079	0.39629	9.28245	9850.37606	0.82717	7.79476E-4	1927.85244	24236.104	 	12002.585
1295.0	0.84812	0.15188	7.95805	7.59627	-4.8837	23.22392	33.45923	1.14825	0.87089	59.41568	150.65735	21.32237	0.39327	9.45212	11454.09101	0.80974	6.68211E-4	1931.61624	23751.337	97.0296	12297.266
1290.0	0.86473	0.13527	7.96794	7.58636	-5.0078	22.94151	33.31914	1.1494	0.87002	64.75019	151.32947	23.28046	0.39065	9.62597	13127.99853	0.79258	5.81151E-4	1935.34429	23312.708	87.7258	12546.006
1285.0	0.87903	0.12097	7.97671	7.57755	-5.11815	22.69847	33.18935	1.15021	0.86941	69.6676	151.94303	25.08971	0.38837	9.80381	14877.4755	0.77571	5.11172E-4	1939.02777	22911.743	80.193	12757.457
1280.0	0.89142	0.10858	7.98455	7.5696	-5.21768	22.48638	33.06784	1.15073	0.86901	74.19374	152.50792	26.75853	0.38636	9.98577	16709.44586	0.75913	4.53668E-4	1942.66956	22541.526	74.0434	12938.533
1275.0	0.90224	0.0977597	7.99163	7.56238	-5.30805	22.30054	32.95317	1.15102	0.8688	78.36124	153.03283	28.29805	0.38457	10.1719	18633.54368	0.74284	4.05513E-4	1946.26623	22196.66	68.9732	13094.628
1270.0	0.91174	0.0882566	7.99808	7.55576	-5.39093	22.13618	32.84412	1.15111	0.86873	82.20493	153.5243	29.72043	0.38297	10.36226	20660.50781	0.72684	3.64547E-4	1949.81782	21872.883	64.7554	13230.001
1265.0	0.92014	0.0798643	8.004	7.54965	-5.46747	21.98997	32.73969	1.15104	0.86878	85.75131	153.98727	31.0349	0.38153	10.55709	22800.48779	0.71112	3.29262E-4	1953.32412	21566.797	61.2172	13348.05
1260.0	0.92758	0.0724156	8.00947	7.54395	-5.53879	21.85869	32.63909	1.15083	0.86893	89.03177	154.42591	32.25262	0.38023	10.75644	25066.07285	0.69567	2.98528E-4	1956.78597	21275.665	58.2264	13451.508
1255.0	0.93423	0.0657707	8.01456	7.53862	-5.60555	21.74053	32.54166	1.15052	0.86918	92.07218	154.84367	33.3828	0.37904	10.96041	27469.92142	0.6805	2.71516E-4	1960.20172	20997.263	55.6804	13542.597
1250.0	0.94018	0.0598167	8.01929	7.53344	-5.67046	21.62712	32.42258	1.15096	0.86884	94.92858	155.21835	34.44721	0.37788	11.16902	30026.23098	0.6656	2.47587E-4	1963.11096	20715.17366	56.41787	13623.137
1245.0	0.94554	0.0544581	8.02814	7.52679	-5.75366	21.45564	32.0677	1.15988	0.86216	98.06435	155.46115	35.63064	0.37612	11.38247	33175.61095	0.65098	2.23348E-4	1965.99348	20331.47804	76.73912	13694.627
1240.0	0.95038	0.049618	8.03647	7.52035	-5.83437	21.29054	31.72888	1.1684	0.85587	101.01143	155.68462	36.7456	0.37447	11.60088	36586.43555	0.63662	2.01859E-4	1968.84899	19959.6363	74.36835	13758.313
1235.0	0.95477	0.0452291	8.0443	7.51407	-5.91293	21.13083	31.40451	1.17657	0.84993	103.78642	155.89152	37.79791	0.37291	11.82438	40284.37521	0.62252	1.82724E-4	1971.67951	19598.45052	72.23716	13815.238
1230.0	0.95876	0.0412362	8.05169	7.50796	-5.98942	20.97639	31.0933	1.18441	0.8443	106.40324	156.0842	38.79246	0.37144	12.05314	44297.10522	0.60868	1.6562E-4	1974.48294	19246.89598	70.31091	13866.279
1225.0	0.96241	0.0375907	8.05866	7.502	-6.06409	20.82641	30.79426	1.19193	0.83897	108.87526	156.26433	39.734	0.37005	12.28719	48654.99396	0.5951	1.50285E-4	1977.26227	18904.0942	68.56036	13912.177
1220.0	0.96575	0.0342533	8.06523	7.49618	-6.13703	20.68074	30.50653	1.19916	0.83392	111.21445	156.43344	40.62678	0.36873	12.52672	53391.26778	0.58177	1.36496E-4	1980.01634	18569.27962	66.96292	13953.562
1215.0	0.96935	0.0306517	8.0715	7.49018	-6.21214	20.52687	30.23825	1.20575	0.82936	113.71486	156.61642	41.58058	0.3674	12.81009	58670.57009	0.567	1.23798E-4	1982.75953	18234.86621	66.88268	13997.896
1210.0	0.9733	0.0266994	8.07739	7.48396	-6.28995	20.363	29.98879	1.21169	0.82529	116.42496	156.81654	42.61378	0.36605	13.14839	64583.69269	0.55055	1.12085E-4	1985.49446	17899.67705	67.03783	14046.235
1205.0	0.97683	0.023174	8.08284	7.47796	-6.36512	20.20628	29.746	1.21746	0.82138	118.93517	157.00094	43.57304	0.36478	13.49481	70994.60864	0.53461	1.0162E-4	1988.20641	17573.6222	65.21097	14088.555
1200.0	0.97998	0.0200177	8.08787	7.47215	-6.4379	20.056	29.50976	1.22306	0.81762	121.26658	157.1715	44.466	0.36359	13.8496	77952.92681	0.51915	9.22362E-5	1990.89519	17255.7147	63.5815	14125.735
1195.0	0.98282	0.0171791	8.09252	7.46651	-6.50852	19.91145	29.27988	1.22848	0.81402	123.43766	157.32979	45.29941	0.36246	14.21274	85512.84791	0.50417	8.37965E-5	1993.56252	16945.1232	62.1183	14158.501
1190.0	0.98538	0.0146185	8.09683	7.46103	-6.57715	19.77219	29.05623	1.23372	0.81056	125.46495	157.47721	46.07929	0.3614	14.58425	93733.92712	0.48966	7.61866E-5	1996.20751	16641.13904	60.79683	14187.465
1185.0	0.9877	0.0122995	8.10084	7.45569	-6.64395	19.63774	28.83862	1.23878	0.80725	127.36262	157.61504	46.81082	0.3604	14.96443	102681.6252	0.47559	6.931E-5	1998.82958	16343.15514	59.59678	14213.138
1180.0	0.98981	0.0101929	8.10456	7.45049	-6.70913	19.50751	28.6269	1.24366	0.80408	129.14425	157.74437	47.49899	0.35944	15.35391	112428.2648	0.46193	6.30844E-5	2001.43168	16050.65076	58.50088	14235.953
1175.0	0.99171	0.00829147	8.10806	7.44542	-6.77255	19.38194	28.42059	1.24838	0.80104	130.80974	157.86574	48.14367	0.35854	15.74862	123042.8017	0.44881	5.74439E-5	2004.01534	15763.17323	57.49551	14256.276
1170.0	0.9934	0.00659764	8.1115	7.44054	-6.8337	19.26286	28.21799	1.253	0.79808	132.35302	157.98052	48.74252	0.35768	16.12877	134592.2132	0.43671	5.23333E-5	2006.58946	15479.46872	56.7409	14275.279
1165.0	0.99495	0.00504834	8.11475	7.43576	-6.89346	19.14738	28.02101	1.25744	0.79527	133.81096	158.08939	49.30929	0.35685	16.51748	147196.339	0.42496	4.76863E-5	2009.14477	15200.02806	55.88813	14292.394
1160.0	0.99637	0.00362627	8.11782	7.4311	-6.95193	19.03523	27.82905	1.26171	0.79258	135.19187	158.19308	49.84708	0.35607	16.91518	160960.8891	0.41352	4.34568E-5	2011.68008	14924.55555	55.0945	14307.84
1155.0	0.99768	0.00231843	8.12074	7.42652	-7.00918	18.92621	27.64243	1.2658	0.79002	136.50139	158.29211	50.35794	0.35531	17.32201	176000.3522	0.4024	3.96047E-5	2014.19668	14652.7887	54.35337	14321.811
1150.0	0.99889	0.00111293	8.12351	7.42204	-7.0653	18.82003	27.46027	1.26973	0.78757	137.74683	158.38707	50.84461	0.35459	17.7385	192443.8716	0.39158	3.60939E-5	2016.69723	14384.49615	53.65851	14334.47
1145.0	1.0	0.0	8.12615	7.41765	-7.12034	18.71658	27.28158	1.27356	0.7852	138.93244	158.47838	51.30865	0.35389	 	210431.3257	 	3.28926E-5	 	14119.46441	53.00635	14345.962
1140.0	1.0	0.0	8.13023	7.41392	-7.16693	18.64113	27.10198	1.27748	0.78279	139.50579	158.54055	51.54115	0.35334	 	230084.3098	 	2.9977E-5	 	13995.99874	24.69313	 
1135.0	1.0	0.0	8.13427	7.41024	-7.21305	18.56661	26.92673	1.28124	0.78049	140.06764	158.60259	51.76912	0.35281	 	251751.9993	 	2.73E-5	 	13766.95713	45.80832	 
1130.0	1.0	0.0	8.13828	7.4066	-7.25871	18.49299	26.75563	1.28486	0.7783	140.61847	158.66461	51.99273	0.35229	 	275658.2258	 	2.48439E-5	 	13539.62095	45.46724	 
1125.0	1.0	0.0	8.14225	7.40298	-7.30393	18.42024	26.5885	1.28833	0.7762	141.15875	158.7267	52.21217	0.35178	 	302053.5565	 	2.25921E-5	 	13313.94026	45.13614	 
1120.0	1.0	0.0	8.14618	7.39941	-7.34872	18.34832	26.42519	1.29165	0.7742	141.68894	158.78893	52.42761	0.35128	 	331218.6595	 	2.05291E-5	 	13089.86719	44.81461	 
1115.0	1.0	0.0	8.15009	7.39586	-7.39309	18.27721	26.26553	1.29484	0.7723	142.20944	158.8514	52.6392	0.35079	 	363468.2175	 	1.86405E-5	 	12867.35586	44.50227	 
1110.0	1.0	0.0	8.15396	7.39235	-7.43705	18.20689	26.10936	1.29789	0.77048	142.72067	158.91417	52.8471	0.35032	 	399155.2677	 	1.69127E-5	 	12646.36238	44.19869	 
1105.0	1.0	0.0	8.1578	7.38887	-7.48061	18.13731	25.95655	1.30082	0.76875	143.22301	158.97731	53.05147	0.34985	 	438676.2564	 	1.53334E-5	 	12426.84421	43.90363	 
1100.0	1.0	0.0	8.16161	7.38543	-7.52379	18.06846	25.80696	1.30361	0.7671	143.71684	159.04089	53.25244	0.34939	 	482476.6527	 	1.38908E-5	 	12208.76092	43.61666	 
1095.0	1.0	0.0	8.16538	7.38201	-7.56658	18.00032	25.66046	1.30628	0.76553	144.2025	159.10495	53.45014	0.34894	 	531057.4802	 	1.25742E-5	 	11992.07355	43.33747	 
1090.0	1.0	0.0	8.16913	7.37862	-7.60901	17.93285	25.51693	1.30882	0.76404	144.68034	159.16957	53.64472	0.34851	 	584982.6763	 	1.13733E-5	 	11776.74468	43.06578	 
1085.0	1.0	0.0	8.17286	7.37526	-7.65109	17.86604	25.37625	1.31125	0.76263	145.15069	159.23478	53.83629	0.34807	 	644887.5031	 	1.0279E-5	 	11562.73828	42.80128	 
1080.0	1.0	0.0	8.17655	7.37193	-7.69281	17.79986	25.23831	1.31357	0.76129	145.61384	159.30063	54.02498	0.34765	 	711488.1895	 	9.2825E-6	 	11350.01977	42.5437	 
1075.0	1.0	0.0	8.18022	7.36862	-7.73419	17.73429	25.103	1.31577	0.76001	146.07012	159.36717	54.2109	0.34724	 	785592.8997	 	8.37582E-6	 	11138.55582	42.29279	 
1070.0	1.0	0.0	8.18386	7.36534	-7.77523	17.66931	24.97023	1.31786	0.75881	146.51979	159.43444	54.39416	0.34683	 	868114.3244	 	7.55152E-6	 	10928.31439	42.04829	 
1065.0	1.0	0.0	8.18747	7.36209	-7.81595	17.6049	24.83989	1.31984	0.75767	146.96313	159.50248	54.57487	0.34644	 	960084.069	 	6.80271E-6	 	10719.26458	41.80996	 
1060.0	1.0	0.0	8.19106	7.35887	-7.85636	17.54104	24.7119	1.32172	0.75659	147.40042	159.57132	54.75314	0.34605	 	1062669.168	 	6.12305E-6	 	10511.37669	41.57758	 
1055.0	1.0	0.0	8.19463	7.35566	-7.89645	17.47771	24.58618	1.32349	0.75558	147.8319	159.641	54.92905	0.34566	 	1177191.002	 	5.50664E-6	 	10304.62203	41.35093	 
1050.0	1.0	0.0	8.19817	7.35249	-7.93624	17.4149	24.45992	1.32532	0.75454	148.25781	159.71155	55.10272	0.34529	 	1305147.041	 	4.94808E-6	 	10098.97298	41.12981	 
1045.0	1.0	0.0	8.20169	7.34933	-7.97573	17.35258	24.33843	1.3269	0.75364	148.67839	159.78299	55.27421	0.34492	 	1448235.814	 	4.44234E-6	 	9894.40289	40.91402	 
1040.0	1.0	0.0	8.20518	7.3462	-8.01493	17.29073	24.21898	1.32839	0.75279	149.09386	159.85536	55.44364	0.34455	 	1608385.64	 	3.98484E-6	 	9690.88605	40.70337	 
1035.0	1.0	0.0	8.20866	7.34309	-8.05385	17.22935	24.10149	1.32978	0.752	149.50445	159.92869	55.61107	0.3442	 	1787787.697	 	3.57132E-6	 	9488.39812	40.49759	 
1030.0	1.0	0.0	8.21211	7.34001	-8.09249	17.16841	23.98589	1.33108	0.75127	149.91035	160.00298	55.7766	0.34385	 	1988934.201	 	3.19787E-6	 	9286.91419	40.29679	 
1025.0	1.0	0.0	8.21554	7.33694	-8.13085	17.1079	23.87211	1.33229	0.75058	150.31178	160.07828	55.9403	0.3435	 	2214662.315	 	2.86091E-6	 	9086.4119	40.10046	 
1020.0	1.0	0.0	8.21895	7.3339	-8.16895	17.0478	23.76009	1.33342	0.74995	150.69392	160.13866	56.09666	0.34316	 	2468204.913	 	2.55714E-6	 	8886.8694	39.9085	 
1015.0	1.0	0.0	8.22233	7.33088	-8.20679	16.9881	23.64978	1.33446	0.74937	151.08714	160.21625	56.25699	0.34283	 	2753249.358	 	2.28353E-6	 	8688.26438	39.721	 
1010.0	1.0	0.0	8.2257	7.32788	-8.24438	16.92878	23.54111	1.33542	0.74883	151.47643	160.29489	56.4157	0.3425	 	3074005.373	 	2.03732E-6	 	8490.57592	39.53769	 
1005.0	1.0	0.0	8.22905	7.3249	-8.28171	16.86984	23.43404	1.33629	0.74834	151.86196	160.3746	56.57288	0.34218	 	3435283.678	 	1.81596E-6	 	8293.78382	39.35842	 
1000.0	1.0	0.0	8.23238	7.32193	-8.3188	16.81125	23.32851	1.33708	0.7479	152.24391	160.4554	56.72857	0.34186	 	3842587.202	 	1.61712E-6	 	8097.8685	39.18306	 
995.0	1.0	0.0	8.23569	7.31899	-8.35565	16.753	23.22446	1.3378	0.7475	152.62242	160.5373	56.88285	0.34155	 	4302216.874	 	1.43868E-6	 	7902.81104	39.01149	 
990.0	1.0	0.0	8.23898	7.31607	-8.39226	16.69508	23.12186	1.33844	0.74714	152.99764	160.62031	57.03577	0.34124	 	4821394.566	 	1.2787E-6	 	7708.59309	38.84359	 
985.0	1.0	0.0	8.24225	7.31316	-8.42864	16.63748	23.02066	1.339	0.74683	153.36974	160.70445	57.18739	0.34094	 	5408406.112	 	1.1354E-6	 	7515.19689	38.67924	 
980.0	1.0	0.0	8.24551	7.31027	-8.46479	16.58018	22.92082	1.33949	0.74655	153.73884	160.78972	57.33777	0.34064	 	6072767.639	 	1.00717E-6	 	7322.60524	38.51833	 
975.0	1.0	0.0	8.24875	7.3074	-8.50072	16.52318	22.82228	1.3399	0.74632	154.10508	160.87614	57.48696	0.34035	 	6825419.691	 	8.92533E-7	 	7130.80135	38.36078	 
970.0	1.0	0.0	8.25197	7.30455	-8.53643	16.46645	22.72502	1.34025	0.74613	154.4686	160.96372	57.63502	0.34006	 	7678953.348	 	7.90148E-7	 	6939.76927	38.20642	 
965.0	1.0	0.0	8.25517	7.30172	-8.57192	16.41	22.629	1.34052	0.74598	154.82953	161.05247	57.78199	0.33977	 	8647874.752	 	6.98796E-7	 	6749.49321	38.05521	 
960.0	1.0	0.0	8.25836	7.2989	-8.60721	16.3538	22.53418	1.34073	0.74586	155.18797	161.14239	57.92793	0.33949	 	9748913.944	 	6.17371E-7	 	6559.95796	37.90705	 
955.0	1.0	0.0	8.26153	7.2961	-8.64229	16.29785	22.44052	1.34086	0.74579	155.54406	161.2335	58.07287	0.33921	 	1.100138684E7	 	5.44867E-7	 	6371.14874	37.76184	 
950.0	1.0	0.0	8.26468	7.29331	-8.67716	16.24214	22.34799	1.34093	0.74575	155.89791	161.32579	58.21687	0.33894	 	1.242761895E7	 	4.80373E-7	 	6183.05126	37.6195	 
945.0	1.0	0.0	8.26782	7.29054	-8.71183	16.18665	22.25656	1.34094	0.74575	156.24962	161.41928	58.35998	0.33867	 	1.405344284E7	 	4.23063E-7	 	5995.6516	37.47993	 
940.0	1.0	0.0	8.27095	7.28779	-8.74631	16.13137	22.16619	1.34088	0.74578	156.5993	161.51397	58.50222	0.3384	 	1.590878238E7	 	3.7219E-7	 	5808.93624	37.34307	 
935.0	1.0	0.0	8.27405	7.28505	-8.78059	16.0763	22.07687	1.34076	0.74585	156.94706	161.60987	58.64365	0.33814	 	1.802833943E7	 	3.27078E-7	 	5622.89206	37.20884	 
930.0	1.0	0.0	8.27715	7.28233	-8.81468	16.02143	21.98855	1.34057	0.74595	157.293	161.70698	58.7843	0.33788	 	2.045240271E7	 	2.87119E-7	 	5437.5063	37.07715	 
925.0	1.0	0.0	8.28023	7.27962	-8.84858	15.96674	21.90122	1.34032	0.74609	157.6372	161.80531	58.92421	0.33763	 	2.3227801E7	 	2.51762E-7	 	5252.76659	36.94794	 
920.0	1.0	0.0	8.28329	7.27693	-8.8823	15.91223	21.81484	1.34001	0.74626	157.97976	161.90486	59.06342	0.33737	 	2.640902808E7	 	2.20511E-7	 	5068.66086	36.82115	 
915.0	1.0	0.0	8.28634	7.27425	-8.91584	15.85788	21.72939	1.33965	0.74647	158.32078	162.00563	59.20197	0.33712	 	3.005957159E7	 	1.92919E-7	 	4885.17738	36.69669	 
910.0	1.0	0.0	8.28938	7.27159	-8.9492	15.80369	21.64485	1.33922	0.7467	158.66033	162.10764	59.33989	0.33688	 	3.425348545E7	 	1.68586E-7	 	4702.30477	36.57452	 
905.0	1.0	0.0	8.2924	7.26894	-8.98238	15.74966	21.56119	1.33873	0.74697	158.9985	162.21088	59.4772	0.33663	 	3.907725191E7	 	1.47151E-7	 	4520.03193	36.45457	 
900.0	1.0	0.0	8.29541	7.2663	-9.01539	15.69576	21.47839	1.33819	0.74728	159.33537	162.31535	59.61396	0.33639	 	4.46319901E7	 	1.2829E-7	 	4338.34807	36.33677	 
895.0	1.0	0.0	8.2984	7.26368	-9.04822	15.64199	21.39643	1.33759	0.74761	159.67102	162.42106	59.75017	0.33616	 	5.103607824E7	 	1.11714E-7	 	4157.24267	36.22108	 
890.0	1.0	0.0	8.30138	7.26107	-9.08089	15.58834	21.31528	1.33694	0.74798	160.00552	162.52802	59.88589	0.33592	 	5.842827108E7	 	9.71627E-8	 	3976.70549	36.10743	 
885.0	1.0	0.0	8.30435	7.25847	-9.11339	15.53481	21.23494	1.33623	0.74838	160.33895	162.63621	60.02113	0.33569	 	6.69714117E7	 	8.44038E-8	 	3796.72659	35.99578	 
880.0	1.0	0.0	8.30731	7.25589	-9.14573	15.48139	21.15537	1.33546	0.7488	160.67138	162.74566	60.15593	0.33546	 	7.685685459E7	 	7.32301E-8	 	3617.29624	35.88607	 
875.0	1.0	0.0	8.31025	7.25332	-9.1779	15.42806	21.07656	1.33464	0.74926	161.00287	162.85634	60.29031	0.33523	 	8.830974697E7	 	6.34566E-8	 	3438.40497	35.77825	 
870.0	1.0	0.0	8.31318	7.25077	-9.20992	15.37483	20.99849	1.33377	0.74975	161.33349	162.96828	60.42429	0.33501	 	1.015953382E8	 	5.49182E-8	 	3260.04358	35.67228	 
865.0	1.0	0.0	8.3161	7.24822	-9.24178	15.32167	20.92115	1.33285	0.75027	161.66331	163.08147	60.55791	0.33478	 	1.170265326E8	 	4.74681E-8	 	3082.20305	35.56811	 
