T (C)	Fraction solid (wt)-TOTAL	Fraction liquid (wt)-LIQUID	Density (g/(cm)^3)-TOTAL	Molar volume (cm^3)-TOTAL	Volume change (%)-  	Average expansion coeff. (10e-6 1/K)-  	Thermal conductivity (W/(m*K))-TOTAL	Electrical resistivity (10e-6 Ohm*m)-TOTAL	Electrical conductivity (10e6 1/(Ohm*m))-TOTAL	Young's modulus (GPa)-TOTAL	Bulk modulus (GPa)-TOTAL	Shear modulus(GPa)-TOTAL	Poisson's ratio-TOTAL	Liquid viscosity (mPa s)-  	Total viscosity (mPa s)-  	Liquid diffusivity (10e-9 (m^2)/s)-  	Total diffusivity (10e-9 (m^2)/s)-  	Surface Tension (mN/m)-  	Enthalpy (J/mole)-TOTAL	Specific heat (J/(mole K))-TOTAL	Latent heat (J/mole)-TOTAL
1400.0	0.0	1.0	7.04398	7.90882	0.0	31.43999	28.59956	1.43332	0.69768	0.0	121.9343	0.0	0.5	6.6675	6.6675	1.22478	1.22478	1744.28971	51607.799	 	0.0
1395.0	0.0	1.0	7.04788	7.90445	-0.0552863	31.40277	28.52032	1.433	0.69784	0.0	122.09007	0.0	0.5	6.73702	6.73702	1.20852	1.20852	1746.38619	51404.687	40.6224	0.0
1390.0	0.0	1.0	7.05177	7.90009	-0.11041	31.36572	28.44108	1.43269	0.69799	0.0	122.24584	0.0	0.5	6.80769	6.80769	1.19239	1.19239	1748.49947	51202.026	40.5322	0.0
1385.0	0.0	1.0	7.05565	7.89575	-0.16538	31.32883	28.36185	1.43237	0.69814	0.0	122.40161	0.0	0.5	6.87954	6.87954	1.17639	1.17639	1750.62971	50999.817	40.4418	0.0
1380.0	0.0	1.0	7.05953	7.89141	-0.22019	31.29212	28.28261	1.43205	0.6983	0.0	122.55738	0.0	0.5	6.95258	6.95258	1.16052	1.16052	1752.77702	50798.054	40.3526	0.0
1375.0	0.0	1.0	7.0634	7.88709	-0.27484	31.25557	28.20337	1.43173	0.69845	0.0	122.71315	0.0	0.5	7.02685	7.02685	1.14478	1.14478	1754.94149	50596.738	40.2632	0.0
1370.0	0.0	1.0	7.06726	7.88278	-0.32934	31.2192	28.12414	1.43141	0.69861	0.0	122.86891	0.0	0.5	7.10238	7.10238	1.12917	1.12917	1757.12321	50395.864	40.1748	0.0
1365.0	0.0	1.0	7.07111	7.87848	-0.38367	31.183	28.0449	1.43109	0.69877	0.0	123.02468	0.0	0.5	7.17918	7.17918	1.11369	1.11369	1759.32226	50195.432	40.0864	0.0
1360.0	0.0	1.0	7.07496	7.8742	-0.43785	31.14698	27.96567	1.43076	0.69893	0.0	123.18045	0.0	0.5	7.25729	7.25729	1.09834	1.09834	1761.53871	49995.438	39.9988	0.0
1355.0	0.0	1.0	7.0788	7.86992	-0.49186	31.11113	27.88643	1.43043	0.69909	0.0	123.33622	0.0	0.5	7.33674	7.33674	1.08312	1.08312	1763.77261	49795.881	39.9114	0.0
1350.0	0.0	1.0	7.08264	7.86566	-0.54572	31.07547	27.80719	1.4301	0.69925	0.0	123.49199	0.0	0.5	7.41756	7.41756	1.06803	1.06803	1766.024	49596.758	39.8246	0.0
1345.0	0.0	1.0	7.08646	7.86142	-0.59942	31.03999	27.72796	1.42977	0.69941	0.0	123.64776	0.0	0.5	7.49977	7.49977	1.05307	1.05307	1768.29292	49398.067	39.7382	0.0
1340.0	0.0	1.0	7.09028	7.85718	-0.65296	31.00469	27.64872	1.42944	0.69957	0.0	123.80353	0.0	0.5	7.58341	7.58341	1.03824	1.03824	1770.57938	49199.806	39.6522	0.0
1337.62	0.0	1.0	7.09209	7.85517	-0.67836	30.98798	27.61105	1.42928	0.69965	0.0	123.87759	0.0	0.5	7.62369	7.62369	1.03123	1.03123	1771.67263	49105.691	39.58953	0.0010
1335.0	0.0758507	0.92415	7.11136	7.83389	-0.94743	30.27657	27.88068	1.41315	0.70764	0.00302755	124.10078	0.00101608	0.48983	7.67662	9.21166	1.02245	0.85207	1771.05898	47898.689	460.20826	1103.282
1330.0	0.20319	0.79681	7.14415	7.79791	-1.40246	29.07958	28.33916	1.38597	0.72152	0.15953	124.51784	0.0541667	0.47256	7.77868	49.49678	1.0059	0.15808	1770.00607	45860.372	407.6634	2944.191
1325.0	0.30794	0.69206	7.1717	7.768	-1.78055	28.09621	28.71973	1.36334	0.73349	0.8579	124.9327	0.29417	0.45819	7.88254	230.79277	0.98955	0.0337973	1769.10437	44161.109	339.8526	4446.47
1320.0	0.39502	0.60498	7.19512	7.74275	-2.09984	27.27627	29.03892	1.34413	0.74397	2.36279	125.34584	0.81695	0.44611	7.9882	640.00553	0.97341	0.0121495	1768.34299	42726.79	286.8638	5684.225
1315.0	0.46811	0.53189	7.21526	7.72107	-2.37398	26.58174	29.30777	1.32762	0.75323	4.73023	125.75735	1.64718	0.43586	8.09574	1321.91365	0.95746	0.00586375	1767.71185	41501.925	244.973	6712.945
1310.0	0.52999	0.47001	7.23275	7.7024	-2.61012	25.99319	29.53462	1.31328	0.76145	7.87762	126.17072	2.76001	0.4271	8.20524	2289.76528	0.94171	0.00337457	1767.20016	40444.411	211.5028	7574.733
1305.0	0.58278	0.41722	7.24808	7.68608	-2.81642	25.48778	29.72526	1.30073	0.7688	11.65705	126.58458	4.10589	0.41955	8.31678	3538.6811	0.92615	0.00217667	1766.79907	39521.914	184.4994	8301.917
1300.0	0.62812	0.37188	7.26164	7.6717	-2.99821	25.05085	29.88481	1.28969	0.77538	15.90698	126.99975	5.62875	0.41301	8.43053	5056.75842	0.91076	0.00151839	1766.49987	38709.325	162.5178	8919.606
1295.0	0.66731	0.33269	7.27374	7.65889	-3.16024	24.66904	30.01732	1.27992	0.7813	20.47174	127.41498	7.27338	0.40731	8.54642	6828.9701	0.89555	0.00112078	1766.295	37986.945	144.476	9447.497
1290.0	0.70138	0.29862	7.28461	7.64744	-3.30503	24.33553	30.12629	1.27122	0.78665	25.22046	127.83148	8.99251	0.4023	8.66469	8843.22042	0.88051	8.62734E-4	1766.17671	37339.173	129.5544	9901.189
1285.0	0.73114	0.26886	7.29444	7.63708	-3.43595	24.04083	30.21462	1.26345	0.79148	30.04421	128.24799	10.74625	0.39789	8.78533	11089.28391	0.86564	6.85792E-4	1766.13893	36753.546	117.1254	10293.143
1280.0	0.75727	0.24273	7.3034	7.62764	-3.55537	23.77831	30.28507	1.25647	0.79588	34.86245	128.6643	12.50464	0.39398	8.90844	13562.43853	0.85094	5.58936E-4	1766.17585	36220.023	106.7046	10633.398
1275.0	0.7803	0.2197	7.31162	7.61901	-3.6644	23.54495	30.33982	1.25016	0.7999	39.61083	129.08087	14.24338	0.3905	9.03419	16260.75702	0.83639	4.64685E-4	1766.28146	35730.459	97.9128	10930.096
1270.0	0.80069	0.19931	7.3192	7.61108	-3.76467	23.33625	30.38085	1.24444	0.80357	44.24517	129.49746	15.94549	0.38739	9.16265	19186.86821	0.822	3.92546E-4	1766.45093	35278.196	90.4526	11189.893
1265.0	0.81881	0.18119	7.32623	7.60374	-3.85754	23.14832	30.40972	1.23923	0.80695	48.73301	129.91343	17.59829	0.3846	9.29391	22346.08983	0.80777	3.35957E-4	1766.67998	34857.757	84.0878	11418.266
1260.0	0.83497	0.16503	7.33278	7.59687	-3.94444	22.97706	30.42794	1.23446	0.81007	53.05674	130.32816	19.19461	0.38207	9.42812	25748.50854	0.79368	2.90616E-4	1766.96518	34464.608	78.6298	11619.745
1255.0	0.84943	0.15057	7.33892	7.59045	-4.02556	22.82213	30.4367	1.23008	0.81295	57.20017	130.74228	20.72778	0.37979	9.56534	29405.28784	0.77974	2.53646E-4	1767.30207	34094.975	73.9266	11798.103
1250.0	0.86242	0.13758	7.3447	7.58443	-4.10164	22.6814	30.43714	1.22604	0.81563	61.16042	131.15563	22.19615	0.37773	9.70575	33333.31649	0.76595	2.23024E-4	1767.68719	33745.697	69.8556	11956.499
1245.0	0.8741	0.1259	7.35016	7.57873	-4.17375	22.55178	30.43015	1.2223	0.81813	64.93625	131.56745	23.59878	0.37584	9.84947	37550.42448	0.7523	1.97327E-4	1768.11849	33414.116	66.3162	12097.588
1240.0	0.88465	0.11535	7.35535	7.57331	-4.24223	22.43235	30.41655	1.21882	0.82047	68.53053	131.97787	24.93627	0.37411	9.99662	42078.42994	0.73878	1.75513E-4	1768.59297	33097.985	63.2262	12223.616
1235.0	0.8942	0.1058	7.36029	7.56817	-4.30724	22.32272	30.39715	1.21556	0.82266	71.94936	132.38723	26.21047	0.37253	10.14733	46943.2234	0.7254	1.56804E-4	1769.10751	32795.394	60.5182	12336.491
1230.0	0.90287	0.0971333	7.36501	7.56325	-4.36946	22.22092	30.37248	1.21252	0.82473	75.19863	132.795	27.42326	0.37107	10.30177	52171.62329	0.71216	1.40622E-4	1769.66068	32504.714	58.136	12437.84
1225.0	0.91074	0.0892566	7.36953	7.55854	-4.429	22.12666	30.34306	1.20966	0.82668	78.28201	133.20123	28.57569	0.36973	10.46007	57792.22017	0.69905	1.26524E-4	1770.25001	32224.551	56.0326	12529.056
1220.0	0.91793	0.0820657	7.37389	7.55401	-4.48629	22.0387	30.30944	1.20696	0.82853	81.21339	133.6059	29.67271	0.36849	10.62248	63842.74777	0.68606	1.14151E-4	1770.87393	31953.705	54.1692	12611.336
1215.0	0.9245	0.0754994	7.37808	7.54965	-4.54146	21.95674	30.27202	1.2044	0.83029	83.99804	134.00897	30.71605	0.36733	10.78902	70358.97131	0.67321	1.03232E-4	1771.53053	31691.139	52.5132	12685.714
1210.0	0.93051	0.0694886	7.38214	7.54543	-4.59486	21.87969	30.23116	1.20198	0.83196	86.64434	134.41029	31.70867	0.36626	10.9599	77382.47155	0.66049	9.35469E-5	1772.21877	31435.959	51.036	12753.085
1205.0	0.93603	0.0639734	7.38607	7.54135	-4.64642	21.80785	30.18717	1.19967	0.83356	89.16075	134.80997	32.65355	0.36525	11.13543	84958.88531	0.64789	8.49173E-5	1772.93636	31187.384	49.715	12814.226
1200.0	0.94109	0.0589053	7.38989	7.53738	-4.69662	21.73979	30.14037	1.19747	0.83509	91.55597	135.20784	33.55383	0.36431	11.31562	93139.27951	0.63541	7.71971E-5	1773.68312	30944.734	48.53	12869.815
1195.88	0.94496	0.0550437	7.39296	7.53419	-4.73698	21.68657	30.09971	1.19573	0.83631	93.44019	135.53461	34.26266	0.36359	11.46799	100374.9027	0.62521	7.14317E-5	1774.32067	30748.76	 	12911.753
1195.0	0.94594	0.0540616	7.39371	7.53345	-4.74631	21.67276	30.09119	1.19536	0.83657	93.9116	135.61239	34.44002	0.36341	11.48552	102045.7138	0.62389	7.02202E-5	1774.39705	30703.265	48.2938	12924.595
1190.0	0.95136	0.0486442	7.39793	7.52927	-4.79917	21.5949	30.04189	1.19324	0.83805	96.56116	136.05547	35.43745	0.36242	11.58932	112069.4644	0.61619	6.37218E-5	1774.84327	30446.702	51.3126	12994.84
1186.94	0.95439	0.0456125	7.40044	7.52679	-4.83048	21.55031	30.01031	1.192	0.83893	98.09063	136.32342	36.01367	0.36185	11.65539	118570.2199	0.61142	6.01023E-5	1775.12992	30294.008	 	13033.728
1185.0	0.95684	0.0431624	7.40213	7.52509	-4.85194	21.51669	29.99301	1.1911	0.83956	99.30741	136.50867	36.47229	0.36141	11.68867	123163.2469	0.60887	5.7784E-5	1775.49424	30188.42	51.6564	13067.172
1181.45	0.96107	0.0389338	7.40516	7.52206	-4.89028	21.45782	29.96042	1.1895	0.84069	101.45046	136.84359	37.28047	0.36064	11.75153	131905.0555	0.60414	5.38232E-5	1776.16413	29999.613	 	13124.306
1181.45	0.96107	0.0389338	7.40516	7.52206	-4.89028	21.45782	29.96042	1.1895	0.84069	101.45046	136.84359	37.28047	0.36064	11.75153	131905.0555	0.60414	5.38232E-5	1776.16413	29999.613	 	13124.306
1180.0	0.96806	0.0319377	7.40886	7.51835	-4.93721	21.33184	29.94169	1.18905	0.84101	104.84751	137.21802	38.56134	0.35949	11.76075	138666.4984	0.60306	5.11476E-5	1776.088	29803.624	76.9592	13266.383
1175.0	0.9843	0.0157013	7.4186	7.50873	-5.05887	21.02621	29.87545	1.18759	0.84204	113.22438	138.21075	41.72607	0.35676	11.78599	159421.3192	0.5997	4.43357E-5	1776.02732	29291.331	102.4586	13593.456
1170.0	0.99291	0.00709387	7.42535	7.50219	-5.14153	20.84616	29.80583	1.18625	0.84299	118.10393	138.91827	43.57388	0.35521	11.81667	177736.1667	0.59608	3.96298E-5	1776.2542	28935.579	71.1504	13764.35
1165.0	0.99818	0.0018165	7.43078	7.49702	-5.20685	20.72184	29.73397	1.185	0.84388	121.37087	139.50033	44.81303	0.35419	11.8533	195614.6965	0.59218	3.58831E-5	1776.68123	28647.961	57.5236	13867.471
1162.62	1.0	0.0	7.43307	7.49485	-5.23429	20.67445	29.69968	1.1844	0.84431	122.57872	139.75136	45.27165	0.35381	 	204229.588	 	3.43124E-5	 	28525.097	 	13902.471
1160.0	1.0	0.0	7.43442	7.4935	-5.25146	20.66512	29.65762	1.18392	0.84465	122.82891	139.94377	45.3673	0.35372	 	212466.6766	 	3.29221E-5	 	28414.30991	46.73022	 
1155.0	1.0	0.0	7.43698	7.49091	-5.28414	20.64764	29.57717	1.183	0.84531	123.30662	140.31062	45.54997	0.35353	 	229242.9377	 	3.04064E-5	 	28240.84646	34.69269	 
1150.0	1.0	0.0	7.43954	7.48833	-5.31676	20.63025	29.49672	1.18207	0.84597	123.78348	140.67571	45.73237	0.35335	 	247475.9624	 	2.80675E-5	 	28067.65421	34.63845	 
1145.0	1.0	0.0	7.4421	7.48576	-5.3493	20.61294	29.41626	1.18114	0.84664	124.2595	141.03904	45.9145	0.35316	 	267303.3722	 	2.58943E-5	 	27894.73262	34.58432	 
1140.0	1.0	0.0	7.44466	7.48319	-5.38177	20.59572	29.3358	1.1802	0.84731	124.73468	141.40064	46.09637	0.35298	 	288876.837	 	2.3876E-5	 	27722.08113	34.5303	 
1135.0	1.0	0.0	7.44721	7.48063	-5.41416	20.5786	29.25533	1.17926	0.84799	125.20901	141.7605	46.27797	0.35279	 	312363.5664	 	2.20027E-5	 	27549.69924	34.47638	 
1130.0	1.0	0.0	7.44975	7.47807	-5.44648	20.56156	29.17486	1.17832	0.84867	125.6825	142.11863	46.45931	0.35261	 	337948.0649	 	2.02647E-5	 	27377.58638	34.42257	 
1125.0	1.0	0.0	7.45229	7.47552	-5.47873	20.54462	29.09438	1.17736	0.84935	126.15515	142.47504	46.64037	0.35242	 	365834.0204	 	1.86533E-5	 	27205.74202	34.36887	 
1120.0	1.0	0.0	7.45483	7.47298	-5.51091	20.52777	29.01389	1.17641	0.85005	126.62695	142.82974	46.82117	0.35224	 	396246.4496	 	1.71601E-5	 	27034.16563	34.31528	 
1115.0	1.0	0.0	7.45737	7.47044	-5.54302	20.51102	28.9334	1.17545	0.85074	127.0979	143.18273	47.00171	0.35206	 	429434.0881	 	1.57771E-5	 	26862.85665	34.2618	 
1110.0	1.0	0.0	7.45989	7.4679	-5.57505	20.49436	28.8529	1.17448	0.85144	127.56802	143.53403	47.18197	0.35187	 	465672.0741	 	1.44969E-5	 	26691.81456	34.20842	 
1105.0	1.0	0.0	7.46242	7.46538	-5.60701	20.4778	28.77239	1.17351	0.85214	128.03729	143.88363	47.36197	0.35169	 	505264.9352	 	1.33126E-5	 	26521.03879	34.15515	 
1100.0	1.0	0.0	7.46494	7.46285	-5.6389	20.46134	28.69188	1.17253	0.85285	128.50571	144.23156	47.5417	0.35151	 	548550.0014	 	1.22177E-5	 	26350.52882	34.10199	 
1098.78	1.0	0.0	7.46556	7.46224	-5.64667	20.45735	28.67225	1.17229	0.85303	128.61979	144.31613	47.58548	0.35146	 	559704.6013	 	1.19636E-5	 	26308.99754	 	 
1095.0	1.0	0.0	7.46933	7.45847	-5.69428	20.36207	28.51949	1.17532	0.85083	129.32517	144.77597	47.85849	0.35112	 	599553.0679	 	1.11376E-5	 	26072.5483	55.5961	 
1090.0	1.0	0.0	7.47423	7.45358	-5.75621	20.2387	28.3256	1.17905	0.84814	130.22836	145.35544	48.2085	0.35068	 	657127.6456	 	1.01247E-5	 	25765.0148	61.5067	 
1085.0	1.0	0.0	7.47906	7.44877	-5.81697	20.11833	28.13925	1.1825	0.84567	131.10652	145.91354	48.54911	0.35025	 	720839.9973	 	9.19593E-6	 	25463.12029	60.3789	 
1080.0	1.0	0.0	7.48379	7.44406	-5.87658	20.00089	27.95965	1.18572	0.84337	131.96318	146.45453	48.8816	0.34982	 	791396.1909	 	8.34524E-6	 	25166.62708	59.29864	 
1075.0	1.0	0.0	7.48845	7.43943	-5.9351	19.88627	27.78627	1.18871	0.84125	132.80019	146.9805	49.20666	0.34941	 	869589.1883	 	7.56677E-6	 	24875.3057	58.26428	 
1070.0	1.0	0.0	7.49303	7.43488	-5.99256	19.77436	27.6187	1.19148	0.83929	133.61888	147.49277	49.52476	0.34901	 	956310.415	 	6.85508E-6	 	24588.93466	57.27421	 
1065.0	1.0	0.0	7.49753	7.43042	-6.049	19.66506	27.45659	1.19406	0.83748	134.42032	147.99236	49.83632	0.34862	 	1052562.509	 	6.20503E-6	 	24307.30079	56.32677	 
1060.0	1.0	0.0	7.50196	7.42603	-6.10447	19.55824	27.2996	1.19643	0.83582	135.20543	148.48008	50.14168	0.34823	 	1159474.203	 	5.61183E-6	 	24030.1992	55.42032	 
1055.0	1.0	0.0	7.50632	7.42172	-6.15901	19.4538	27.14743	1.19863	0.83429	135.97507	148.95666	50.44116	0.34786	 	1278317.336	 	5.07102E-6	 	23757.43277	54.55328	 
1050.0	1.0	0.0	7.51061	7.41748	-6.21265	19.35163	26.9998	1.20064	0.83289	136.73	149.42273	50.73504	0.34749	 	1410526.354	 	4.57841E-6	 	23488.81231	53.72409	 
1045.0	1.0	0.0	7.51484	7.4133	-6.26544	19.25162	26.85645	1.20249	0.83161	137.47096	149.87887	51.0236	0.34713	 	1557720.314	 	4.13011E-6	 	23224.15641	52.93118	 
1040.0	1.0	0.0	7.51901	7.40919	-6.3174	19.15368	26.71711	1.20418	0.83044	138.19862	150.32561	51.30711	0.34678	 	1721728.365	 	3.72251E-6	 	22963.29124	52.17303	 
1039.03	1.0	0.0	7.51981	7.4084	-6.3274	19.1349	26.69047	1.20449	0.83023	138.33865	150.41147	51.36167	0.34671	 	1755749.238	 	3.64768E-6	 	22912.98349	 	 
1035.0	1.0	0.0	7.52311	7.40515	-6.36849	19.058	26.58158	1.20571	0.82939	138.91391	150.76392	51.58589	0.34643	 	1904660.352	 	3.35218E-6	 	22705.91038	51.47617	 
1030.0	1.0	0.0	7.52716	7.40117	-6.41883	18.96421	26.44961	1.20709	0.82844	139.61718	151.19382	51.86009	0.34609	 	2108828.882	 	3.01606E-6	 	22451.97779	50.78652	 
1025.0	1.0	0.0	7.53115	7.39725	-6.46845	18.87219	26.32101	1.20834	0.82758	140.30896	151.61564	52.12991	0.34576	 	2336880.491	 	2.71128E-6	 	22201.37075	50.12141	 
1020.0	1.0	0.0	7.53509	7.39338	-6.51737	18.78186	26.19557	1.20945	0.82682	140.9898	152.02979	52.39557	0.34544	 	2591822.746	 	2.43518E-6	 	21953.94333	49.48548	 
1015.0	1.0	0.0	7.53898	7.38956	-6.56564	18.69313	26.07312	1.21043	0.82615	141.6602	152.43662	52.65725	0.34512	 	2877068.822	 	2.18526E-6	 	21709.55642	48.87738	 
1010.0	1.0	0.0	7.54283	7.38579	-6.61327	18.60592	25.95349	1.21129	0.82557	142.32065	152.83648	52.91515	0.3448	 	3196495.574	 	1.95925E-6	 	21468.07746	48.29579	 
1005.0	1.0	0.0	7.54663	7.38207	-6.66029	18.52016	25.83651	1.21203	0.82506	142.97162	153.22969	53.16942	0.34449	 	3554511.405	 	1.75505E-6	 	21229.38016	47.73946	 
1000.0	1.0	0.0	7.55039	7.3784	-6.70673	18.43578	25.72204	1.21266	0.82463	143.61353	153.61654	53.42025	0.34419	 	3956133.31	 	1.57071E-6	 	20993.34434	47.20716	 
995.0	1.0	0.0	7.5541	7.37477	-6.75261	18.3527	25.60993	1.21319	0.82427	144.24679	153.99732	53.66779	0.34389	 	4407076.69	 	1.40445E-6	 	20759.85556	46.69776	 
990.0	1.0	0.0	7.55778	7.37119	-6.79796	18.27086	25.50006	1.21361	0.82399	144.87179	154.37228	53.91218	0.34359	 	4913859.182	 	1.25464E-6	 	20528.80496	46.21012	 
985.0	1.0	0.0	7.56141	7.36764	-6.84278	18.19019	25.39229	1.21394	0.82377	145.4889	154.74167	54.15357	0.3433	 	5483920.201	 	1.11977E-6	 	20300.08894	45.7432	 
980.0	1.0	0.0	7.56501	7.36414	-6.88711	18.11063	25.28653	1.21417	0.82361	146.09846	155.10571	54.39209	0.34301	 	6125760.879	 	9.98458E-7	 	20073.60896	45.29599	 
975.0	1.0	0.0	7.56858	7.36067	-6.93096	18.03212	25.18265	1.21432	0.82351	146.70079	155.46462	54.62786	0.34273	 	6849103.893	 	8.89446E-7	 	19849.27127	44.86754	 
970.0	1.0	0.0	7.57211	7.35723	-6.97436	17.95461	25.08055	1.21437	0.82347	147.29621	155.8186	54.861	0.34245	 	7665082.623	 	7.91577E-7	 	19626.98669	44.45692	 
965.0	1.0	0.0	7.57561	7.35384	-7.01731	17.87803	24.98015	1.21435	0.82349	147.88499	156.16784	55.09163	0.34217	 	8586457.278	 	7.03795E-7	 	19406.67034	44.06327	 
960.0	1.0	0.0	7.57907	7.35047	-7.05985	17.80235	24.88135	1.21425	0.82355	148.46743	156.51251	55.31984	0.3419	 	9627869.292	 	6.25133E-7	 	19188.2415	43.68577	 
955.0	1.0	0.0	7.58251	7.34714	-7.10197	17.7275	24.78408	1.21407	0.82367	149.04377	156.85277	55.54574	0.34163	 	1.08061365E7	 	5.54712E-7	 	18971.62329	43.32364	 
950.0	1.0	0.0	7.58592	7.34384	-7.1437	17.65344	24.68824	1.21382	0.82384	149.61425	157.18879	55.76942	0.34136	 	1.214059792E7	 	4.9173E-7	 	18756.74257	42.97614	 
945.0	1.0	0.0	7.5893	7.34057	-7.18505	17.58012	24.59377	1.21351	0.82406	150.17912	157.52071	55.99097	0.3411	 	1.365351557E7	 	4.35455E-7	 	18543.52966	42.64258	 
940.0	1.0	0.0	7.59265	7.33733	-7.22604	17.5075	24.50061	1.21312	0.82432	150.73859	157.84866	56.21048	0.34084	 	1.53705456E7	 	3.85223E-7	 	18331.91822	42.32229	 
935.0	1.0	0.0	7.59598	7.33412	-7.26668	17.43553	24.40868	1.21267	0.82463	151.29285	158.17278	56.42802	0.34058	 	1.732128963E7	 	3.4043E-7	 	18121.84503	42.01464	 
930.0	1.0	0.0	7.59928	7.33093	-7.30698	17.36418	24.31792	1.21216	0.82497	151.84212	158.49319	56.64367	0.34033	 	1.953993932E7	 	3.00527E-7	 	17913.24984	41.71904	 
925.0	1.0	0.0	7.60256	7.32777	-7.34695	17.2934	24.22829	1.21159	0.82536	152.38656	158.80999	56.8575	0.34007	 	2.20660348E7	 	2.65017E-7	 	17706.0752	41.43493	 
920.0	1.0	0.0	7.60581	7.32463	-7.38661	17.22316	24.13972	1.21096	0.82579	152.92636	159.1233	57.06957	0.33982	 	2.494535502E7	 	2.33449E-7	 	17500.26635	41.16177	 
915.0	1.0	0.0	7.60905	7.32152	-7.42596	17.15342	24.05217	1.21027	0.82626	153.46168	159.43323	57.27995	0.33958	 	2.823096669E7	 	2.05415E-7	 	17295.771	40.89907	 
910.0	1.0	0.0	7.61226	7.31843	-7.46502	17.08414	23.96559	1.20953	0.82677	153.99267	159.73986	57.48871	0.33933	 	3.198445451E7	 	1.80546E-7	 	17092.5393	40.64634	 
905.0	1.0	0.0	7.61545	7.31536	-7.50379	17.01529	23.87994	1.20874	0.82731	154.51947	160.04329	57.69588	0.33909	 	3.627737946E7	 	1.58508E-7	 	16890.52361	40.40314	 
900.0	1.0	0.0	7.61862	7.31232	-7.54229	16.94684	23.79517	1.2079	0.82788	155.04224	160.34361	57.90154	0.33884	 	4.119299541E7	 	1.39001E-7	 	16689.67847	40.16903	 
895.0	1.0	0.0	7.62177	7.30929	-7.58052	16.87875	23.71125	1.20701	0.82849	155.56109	160.64089	58.10573	0.3386	 	4.682828524E7	 	1.21752E-7	 	16489.96045	39.9436	 
890.0	1.0	0.0	7.62491	7.30629	-7.6185	16.811	23.62814	1.20607	0.82914	156.07615	160.93522	58.3085	0.33837	 	5.329635727E7	 	1.06518E-7	 	16291.32803	39.72648	 
885.0	1.0	0.0	7.62802	7.30331	-7.65622	16.74356	23.54581	1.20508	0.82982	156.58755	161.22667	58.50989	0.33813	 	6.072931005E7	 	9.30793E-8	 	16093.74156	39.51729	 
